SpectraSuite Data File
++++++++++++++++++++++++++++++++++++
Date: Mon Oct 20 20:45:39 GMT 2014
User: ammspsa
Dark Spectrum Present: Yes
Reference Spectrum Present: No
Number of Sampled Component Spectra: 1
Spectrometers: USB4E00404
Integration Time (usec): 1000000 (USB4E00404)
Spectra Averaged: 5 (USB4E00404)
Boxcar Smoothing: 0 (USB4E00404)
Correct for Electrical Dark: No (USB4E00404)
Strobe/Lamp Enabled: No (USB4E00404)
Correct for Detector Non-linearity: No (USB4E00404)
Correct for Stray Light: No (USB4E00404)
Number of Pixels in Processed Spectrum: 3648
>>>>>Begin Processed Spectral Data<<<<<
345.87	-0.82
346.08	-0.82
346.30	-0.82
346.51	-50.38
346.72	-24.17
346.94	-20.48
347.15	4.51
347.37	2.05
347.58	-32.77
347.79	32.77
348.01	-26.62
348.22	-18.02
348.43	-24.17
348.65	45.46
348.86	-41.37
349.08	-8.60
349.29	-20.48
349.50	-38.50
349.72	-12.70
349.93	35.23
350.14	-2.87
350.36	-30.31
350.57	-49.97
350.78	41.37
351.00	8.19
351.21	-23.76
351.43	4.51
351.64	-20.07
351.85	31.54
352.07	27.85
352.28	13.52
352.49	-7.37
352.71	18.84
352.92	-18.02
353.13	-16.38
353.35	-0.41
353.56	22.12
353.77	-27.03
353.99	15.97
354.20	0.82
354.41	-16.79
354.63	14.75
354.84	18.02
355.05	33.18
355.27	7.78
355.48	43.42
355.70	-29.08
355.91	-14.34
356.12	-11.47
356.34	-11.06
356.55	23.76
356.76	29.90
356.98	9.01
357.19	16.38
357.40	7.78
357.62	17.20
357.83	50.38
358.04	10.24
358.26	-13.52
358.47	-13.93
358.68	-6.55
358.89	15.97
359.11	17.61
359.32	11.06
359.53	-24.17
359.75	20.48
359.96	-49.56
360.17	11.47
360.39	11.88
360.60	-22.12
360.81	-13.11
361.03	-22.53
361.24	51.20
361.45	23.76
361.67	20.89
361.88	36.45
362.09	8.19
362.31	-2.87
362.52	62.26
362.73	34.41
362.94	2.46
363.16	20.89
363.37	25.39
363.58	7.78
363.80	7.78
364.01	0.00
364.22	-26.21
364.44	4.10
364.65	41.78
364.86	-29.90
365.07	48.33
365.29	-4.10
365.50	-1.23
365.71	22.94
365.93	-42.19
366.14	20.07
366.35	2.05
366.56	27.03
366.78	13.52
366.99	25.80
367.20	-35.63
367.42	60.21
367.63	-32.36
367.84	4.51
368.05	-25.80
368.27	-16.38
368.48	-15.56
368.69	18.84
368.91	-4.10
369.12	18.02
369.33	-7.37
369.54	-21.30
369.76	-4.92
369.97	-14.34
370.18	-2.87
370.39	27.03
370.61	1.23
370.82	-4.51
371.03	-1.23
371.24	4.10
371.46	12.29
371.67	-7.78
371.88	27.03
372.10	17.20
372.31	-19.25
372.52	1.23
372.73	20.07
372.95	-37.27
373.16	42.60
373.37	7.37
373.58	46.28
373.80	-17.20
374.01	-22.12
374.22	20.07
374.43	17.61
374.65	-22.12
374.86	21.71
375.07	15.56
375.28	5.73
375.50	-2.87
375.71	56.93
375.92	2.05
376.13	-25.39
376.34	-1.64
376.56	-50.38
376.77	56.93
376.98	-10.65
377.19	18.02
377.41	-17.61
377.62	-36.86
377.83	2.87
378.04	23.35
378.26	-23.76
378.47	18.84
378.68	-11.47
378.89	-8.60
379.10	-40.96
379.32	11.47
379.53	31.95
379.74	16.38
379.95	-33.59
380.17	33.59
380.38	-16.79
380.59	-29.08
380.80	42.60
381.01	-6.55
381.23	45.06
381.44	13.52
381.65	47.10
381.86	-35.23
382.08	25.39
382.29	47.51
382.50	13.93
382.71	7.78
382.92	20.48
383.14	76.18
383.35	-13.52
383.56	4.10
383.77	-23.76
383.98	-11.06
384.20	8.60
384.41	28.67
384.62	-21.71
384.83	43.42
385.04	0.00
385.26	-26.21
385.47	-10.65
385.68	53.25
385.89	-25.80
386.10	-6.14
386.32	-6.96
386.53	-36.04
386.74	37.27
386.95	-10.24
387.16	-19.66
387.37	19.66
387.59	-5.73
387.80	11.47
388.01	6.96
388.22	19.25
388.43	58.98
388.65	43.42
388.86	9.83
389.07	12.70
389.28	14.34
389.49	35.63
389.70	46.28
389.92	42.60
390.13	48.74
390.34	44.65
390.55	56.52
390.76	34.41
390.97	47.92
391.19	10.65
391.40	7.78
391.61	26.62
391.82	19.25
392.03	70.45
392.24	29.90
392.45	122.47
392.67	57.75
392.88	51.61
393.09	90.52
393.30	108.95
393.51	126.97
393.72	52.43
393.94	90.11
394.15	125.34
394.36	116.73
394.57	123.70
394.78	99.94
394.99	160.56
395.20	166.30
395.42	219.54
395.63	140.90
395.84	122.06
396.05	200.29
396.26	160.56
396.47	151.55
396.68	138.85
396.90	200.70
397.11	140.49
397.32	144.18
397.53	159.74
397.74	169.98
397.95	173.26
398.16	214.63
398.37	221.59
398.59	198.24
398.80	161.38
399.01	237.56
399.22	192.10
399.43	161.79
399.64	177.76
399.85	196.60
400.06	210.53
400.28	144.18
400.49	183.09
400.70	150.73
400.91	206.03
401.12	190.46
401.33	179.40
401.54	129.43
401.75	126.15
401.96	137.21
402.18	151.14
402.39	178.99
402.60	199.88
402.81	159.33
403.02	141.72
403.23	133.53
403.44	140.49
403.65	87.24
403.86	140.49
404.07	133.53
404.29	47.51
404.50	95.44
404.71	134.35
404.92	62.26
405.13	96.66
405.34	137.62
405.55	96.66
405.76	76.18
405.97	94.21
406.18	116.73
406.39	89.29
406.61	99.12
406.82	60.21
407.03	57.34
407.24	122.88
407.45	68.40
407.66	172.44
407.87	74.14
408.08	133.94
408.29	45.87
408.50	77.41
408.71	73.32
408.92	75.37
409.14	49.15
409.35	40.55
409.56	79.87
409.77	22.94
409.98	23.76
410.19	18.43
410.40	40.96
410.61	51.20
410.82	18.43
411.03	88.47
411.24	71.68
411.45	37.68
411.66	-24.17
411.87	70.86
412.08	-2.87
412.29	22.12
412.51	27.03
412.72	57.34
412.93	62.26
413.14	23.35
413.35	-2.87
413.56	49.15
413.77	23.35
413.98	19.25
414.19	40.55
414.40	2.87
414.61	58.57
414.82	14.75
415.03	20.48
415.24	50.79
415.45	-18.84
415.66	45.46
415.87	12.29
416.08	75.77
416.29	39.73
416.50	-23.76
416.71	11.88
416.92	-2.46
417.13	32.77
417.34	12.29
417.55	-12.29
417.77	15.97
417.98	0.41
418.19	0.00
418.40	45.46
418.61	-13.11
418.82	32.36
419.03	19.25
419.24	2.05
419.45	9.83
419.66	14.75
419.87	0.00
420.08	-1.23
420.29	25.39
420.50	14.75
420.71	54.89
420.92	34.82
421.13	37.27
421.34	29.08
421.55	88.47
421.76	50.79
421.97	55.30
422.18	24.99
422.39	24.99
422.60	7.37
422.81	-11.88
423.02	25.39
423.23	42.60
423.44	52.43
423.65	12.70
423.86	21.30
424.07	59.80
424.28	22.94
424.49	-30.72
424.70	62.67
424.91	12.70
425.12	-33.59
425.33	16.38
425.54	-5.32
425.75	16.38
425.96	6.55
426.17	89.29
426.38	43.42
426.59	47.92
426.80	0.82
427.01	28.67
427.22	16.79
427.43	18.02
427.64	2.87
427.84	9.42
428.05	27.85
428.26	14.34
428.47	-12.29
428.68	14.75
428.89	46.69
429.10	59.80
429.31	43.83
429.52	24.99
429.73	-37.68
429.94	-22.12
430.15	32.36
430.36	0.82
430.57	43.42
430.78	36.45
430.99	23.35
431.20	17.61
431.41	6.55
431.62	56.52
431.83	27.85
432.04	2.46
432.25	36.04
432.46	19.66
432.67	-37.68
432.87	65.53
433.08	31.95
433.29	17.20
433.50	40.14
433.71	31.54
433.92	1.64
434.13	43.83
434.34	18.84
434.55	65.13
434.76	49.56
434.97	38.50
435.18	-6.55
435.39	-6.14
435.60	47.10
435.81	49.15
436.02	29.49
436.22	27.03
436.43	-5.32
436.64	15.15
436.85	-7.78
437.06	61.85
437.27	17.20
437.48	-3.69
437.69	-11.47
437.90	19.25
438.11	23.35
438.32	26.21
438.53	37.68
438.74	87.24
438.94	37.68
439.15	17.61
439.36	25.80
439.57	-7.37
439.78	-25.39
439.99	4.51
440.20	15.15
440.41	33.59
440.62	54.07
440.83	59.80
441.04	36.04
441.24	42.19
441.45	56.93
441.66	49.97
441.87	19.66
442.08	22.12
442.29	17.61
442.50	53.25
442.71	19.25
442.92	-4.10
443.12	17.20
443.33	55.70
443.54	0.41
443.75	22.94
443.96	33.59
444.17	50.79
444.38	41.78
444.59	-11.47
444.80	-6.14
445.00	23.35
445.21	-36.45
445.42	40.96
445.63	84.38
445.84	-13.52
446.05	43.01
446.26	18.43
446.47	23.35
446.67	8.60
446.88	30.31
447.09	2.87
447.30	28.67
447.51	-8.60
447.72	10.24
447.93	60.21
448.14	12.29
448.34	34.41
448.55	24.58
448.76	49.56
448.97	14.75
449.18	49.15
449.39	29.90
449.60	-20.48
449.80	2.87
450.01	23.35
450.22	31.13
450.43	-9.42
450.64	32.77
450.85	-1.64
451.06	16.38
451.26	54.48
451.47	21.71
451.68	44.65
451.89	-0.82
452.10	43.01
452.31	31.54
452.51	6.55
452.72	45.87
452.93	58.57
453.14	18.02
453.35	75.77
453.56	-3.69
453.76	75.77
453.97	-13.11
454.18	43.01
454.39	89.29
454.60	63.90
454.81	-28.67
455.01	16.79
455.22	17.20
455.43	45.87
455.64	28.26
455.85	32.36
456.06	25.39
456.26	38.09
456.47	19.25
456.68	67.58
456.89	79.87
457.10	10.65
457.30	63.49
457.51	13.52
457.72	45.06
457.93	56.11
458.14	51.20
458.34	104.45
458.55	-2.46
458.76	78.23
458.97	60.62
459.18	88.47
459.39	74.14
459.59	77.41
459.80	79.46
460.01	9.42
460.22	-0.41
460.42	3.28
460.63	38.50
460.84	78.23
461.05	38.50
461.26	1.64
461.46	100.35
461.67	16.79
461.88	51.20
462.09	85.61
462.30	57.34
462.50	97.07
462.71	50.79
462.92	49.97
463.13	48.33
463.34	53.66
463.54	74.96
463.75	65.54
463.96	60.62
464.17	16.38
464.37	102.40
464.58	77.00
464.79	79.87
465.00	96.66
465.20	99.12
465.41	60.62
465.62	79.05
465.83	41.37
466.04	73.32
466.24	83.56
466.45	92.57
466.66	72.91
466.87	99.53
467.07	32.77
467.28	88.47
467.49	149.50
467.70	70.04
467.90	78.23
468.11	84.38
468.32	101.99
468.53	83.56
468.73	109.77
468.94	107.72
469.15	157.69
469.36	74.96
469.56	84.38
469.77	120.01
469.98	98.30
470.19	95.84
470.39	117.14
470.60	50.79
470.81	79.87
471.02	93.80
471.22	136.80
471.43	117.55
471.64	83.56
471.85	91.34
472.05	115.10
472.26	129.02
472.47	103.63
472.67	151.14
472.88	106.90
473.09	142.54
473.30	119.60
473.50	140.08
473.71	115.51
473.92	156.06
474.12	140.49
474.33	134.76
474.54	176.13
474.75	144.59
474.95	194.56
475.16	119.60
475.37	160.56
475.57	183.50
475.78	153.19
475.99	183.50
476.20	184.32
476.40	170.39
476.61	189.23
476.82	130.25
477.02	145.41
477.23	166.70
477.44	165.89
477.65	148.68
477.85	176.13
478.06	175.31
478.27	210.94
478.47	143.36
478.68	249.44
478.89	237.97
479.09	227.32
479.30	276.07
479.51	202.75
479.71	300.64
479.92	288.76
480.13	225.28
480.34	252.72
480.54	257.22
480.75	203.16
480.96	217.49
481.16	274.43
481.37	290.81
481.58	360.03
481.78	304.33
481.99	294.91
482.20	288.76
482.40	336.69
482.61	346.52
482.82	333.82
483.02	342.42
483.23	319.89
483.44	322.35
483.64	348.15
483.85	404.27
484.06	339.55
484.26	338.73
484.47	378.06
484.68	344.47
484.88	421.47
485.09	352.66
485.30	341.60
485.50	364.95
485.71	383.79
485.92	388.29
486.12	418.60
486.33	417.38
486.54	362.08
486.74	384.20
486.95	412.05
487.15	498.48
487.36	471.44
487.57	425.98
487.77	453.83
487.98	420.65
488.19	488.24
488.39	602.51
488.60	504.21
488.81	510.76
489.01	489.05
489.22	441.54
489.42	482.09
489.63	506.67
489.84	518.55
490.04	575.07
490.25	484.96
490.46	546.40
490.66	552.54
490.87	601.69
491.08	611.93
491.28	665.59
491.49	560.32
491.69	634.87
491.90	632.00
492.11	625.86
492.31	609.89
492.52	620.53
492.72	654.53
492.93	663.95
493.14	650.43
493.34	665.18
493.55	683.61
493.75	671.73
493.96	671.32
494.17	721.29
494.37	688.53
494.58	732.76
494.79	682.38
494.99	750.79
495.20	723.75
495.40	765.12
495.61	778.64
495.81	864.65
496.02	733.58
496.23	820.01
496.43	762.66
496.64	822.87
496.84	808.95
497.05	918.72
497.26	830.66
497.46	854.82
497.67	833.11
497.87	865.88
498.08	903.56
498.29	901.52
498.49	930.19
498.70	949.85
498.90	971.56
499.11	926.50
499.31	904.79
499.52	941.66
499.73	993.26
499.93	962.14
500.14	958.04
500.34	1019.07
500.55	1074.77
500.75	1055.11
500.96	1030.54
501.17	1029.72
501.37	1082.97
501.58	1096.89
501.78	1061.26
501.99	1067.81
502.19	1108.77
502.40	1077.64
502.60	1150.55
502.81	1143.18
503.02	1120.65
503.22	1179.22
503.43	1209.12
503.63	1144.81
503.84	1138.67
504.04	1192.33
504.25	1186.59
504.45	1230.42
504.66	1239.84
504.87	1239.84
505.07	1242.71
505.28	1250.49
505.48	1243.53
505.69	1219.77
505.89	1322.17
506.10	1254.59
506.30	1302.92
506.51	1327.08
506.71	1297.18
506.92	1287.76
507.12	1331.59
507.33	1332.82
507.53	1347.56
507.74	1372.14
507.95	1446.28
508.15	1405.73
508.36	1363.95
508.56	1377.46
508.77	1430.30
508.97	1464.30
509.18	1513.86
509.38	1477.40
509.59	1522.46
509.79	1522.46
510.00	1496.66
510.20	1472.90
510.41	1559.32
510.61	1603.97
510.82	1568.74
511.02	1574.07
511.23	1599.46
511.43	1553.18
511.64	1624.45
511.84	1640.01
512.05	1571.61
512.25	1640.01
512.46	1571.61
512.66	1640.42
512.87	1603.15
513.07	1644.52
513.28	1651.07
513.48	1629.77
513.69	1622.40
513.89	1688.76
514.10	1731.76
514.30	1737.50
514.51	1733.81
514.71	1784.60
514.92	1731.35
515.12	1700.22
515.33	1780.50
515.53	1788.70
515.74	1830.06
515.94	1755.52
516.14	1831.29
516.35	1777.64
516.55	1770.67
516.76	1835.39
516.96	1792.79
517.17	1829.66
517.37	1892.32
517.58	1884.13
517.78	1882.90
517.99	1845.22
518.19	1869.39
518.40	1901.74
518.60	1895.19
518.81	1896.01
519.01	1922.22
519.21	1886.18
519.42	1955.40
519.62	1975.06
519.83	1939.84
520.03	1985.71
520.24	1905.43
520.44	1974.24
520.65	1952.94
520.85	1939.43
521.06	1970.15
521.26	2011.11
521.46	2009.88
521.67	2015.61
521.87	2016.02
522.08	1996.36
522.28	1990.63
522.49	2005.37
522.69	1953.35
522.90	1973.01
523.10	1973.01
523.30	1995.95
523.51	2062.30
523.71	2008.24
523.92	2043.87
524.12	2068.86
524.33	2059.85
524.53	2037.73
524.73	2067.63
524.94	2027.49
525.14	2061.49
525.35	2027.08
525.55	2057.39
525.75	2076.23
525.96	2035.27
526.16	2065.99
526.37	2001.68
526.57	2076.64
526.78	2031.99
526.98	2088.52
527.18	2045.92
527.39	2108.18
527.59	2081.97
527.80	2084.42
528.00	2084.83
528.20	2097.53
528.41	2046.74
528.61	2117.19
528.82	2062.71
529.02	2037.32
529.22	2088.11
529.43	2106.54
529.63	2083.60
529.84	2004.14
530.04	2123.33
530.24	2087.70
530.45	2080.74
530.65	2041.82
530.86	1981.20
531.06	2009.06
531.26	2135.62
531.47	2096.71
531.67	2040.19
531.87	2081.97
532.08	2072.13
532.28	2040.19
532.49	2028.31
532.69	2018.48
532.89	2071.73
533.10	2024.21
533.30	1985.71
533.50	2052.88
533.71	2048.79
533.91	2013.15
534.12	1904.61
534.32	1995.13
534.52	1930.82
534.73	1981.20
534.93	1987.76
535.13	2014.38
535.34	1946.39
535.54	1998.41
535.74	1972.19
535.95	2011.92
536.15	1918.13
536.36	1938.20
536.56	2035.68
536.76	1969.33
536.97	1962.36
537.17	2000.46
537.37	1892.32
537.58	1886.18
537.78	1945.16
537.98	1887.41
538.19	1909.53
538.39	1847.68
538.59	1915.67
538.80	1877.58
539.00	1883.31
539.20	1916.49
539.41	1838.26
539.61	1855.87
539.81	1816.96
540.02	1851.36
540.22	1828.84
540.42	1770.67
540.63	1821.46
540.83	1783.37
541.03	1783.37
541.24	1763.71
541.44	1732.99
541.64	1724.39
541.85	1742.00
542.05	1721.11
542.25	1751.01
542.46	1724.39
542.66	1663.36
542.86	1741.59
543.07	1672.37
543.27	1735.86
543.47	1672.37
543.67	1616.67
543.88	1617.08
544.08	1642.88
544.28	1660.49
544.49	1618.30
544.69	1614.21
544.89	1643.29
545.10	1634.69
545.30	1669.50
545.50	1594.55
545.70	1581.03
545.91	1608.47
546.11	1525.33
546.31	1495.84
546.52	1533.11
546.72	1524.92
546.92	1499.52
547.13	1532.70
547.33	1530.24
547.53	1459.38
547.73	1462.25
547.94	1430.71
548.14	1438.90
548.34	1437.67
548.54	1449.55
548.75	1405.73
548.95	1447.50
549.15	1456.52
549.36	1345.93
549.56	1401.63
549.76	1391.39
549.96	1339.37
550.17	1317.25
550.37	1366.40
550.57	1313.98
550.77	1299.64
550.98	1282.85
551.18	1267.69
551.38	1248.85
551.59	1291.86
551.79	1276.70
551.99	1245.57
552.19	1239.02
552.40	1192.33
552.60	1204.21
552.80	1237.38
553.00	1211.99
553.21	1221.41
553.41	1182.50
553.61	1193.56
553.81	1193.15
554.02	1159.15
554.22	1150.55
554.42	1148.09
554.62	1078.46
554.83	1117.78
555.03	1098.12
555.23	1111.23
555.43	1128.02
555.63	1057.98
555.84	1115.73
556.04	1061.26
556.24	1064.53
556.44	1055.93
556.65	1076.41
556.85	1073.95
557.05	1068.22
557.25	985.89
557.46	1019.07
557.66	985.48
557.86	1030.54
558.06	960.91
558.26	960.50
558.47	963.36
558.67	948.62
558.87	920.36
559.07	888.41
559.27	916.67
559.48	927.32
559.68	919.95
559.88	878.99
560.08	943.70
560.29	880.22
560.49	863.42
560.69	820.42
560.89	857.28
561.09	825.74
561.30	850.73
561.50	783.14
561.70	864.24
561.90	910.12
562.10	839.26
562.30	785.60
562.51	742.18
562.71	815.09
562.91	743.00
563.11	725.80
563.31	810.59
563.52	760.62
563.72	742.18
563.92	739.32
564.12	760.21
564.32	780.28
564.53	768.40
564.73	738.91
564.93	684.02
565.13	732.35
565.33	722.93
565.53	679.93
565.74	668.05
565.94	681.15
566.14	718.43
566.34	687.30
566.54	638.15
566.74	693.85
566.95	662.31
567.15	690.58
567.35	613.16
567.55	592.27
567.75	666.41
567.95	660.67
568.16	598.42
568.36	620.53
568.56	679.93
568.76	575.48
568.96	600.05
569.16	650.43
569.36	571.38
569.57	621.35
569.77	616.44
569.97	564.42
570.17	589.41
570.37	589.82
570.57	582.03
570.77	582.44
570.98	600.05
571.18	566.88
571.38	529.60
571.58	536.98
571.78	493.15
571.98	541.89
572.18	529.60
572.39	548.86
572.59	545.17
572.79	519.36
572.99	490.28
573.19	528.38
573.39	533.29
573.59	530.42
573.79	462.84
573.99	503.80
574.20	502.57
574.40	480.86
574.60	504.62
574.80	415.74
575.00	452.60
575.20	480.45
575.40	455.47
575.60	486.60
575.80	487.01
576.01	427.21
576.21	496.84
576.41	416.97
576.61	474.31
576.81	408.77
577.01	424.34
577.21	384.61
577.41	438.67
577.61	432.53
577.81	422.70
578.02	455.47
578.22	406.73
578.42	419.83
578.62	440.31
578.82	414.92
579.02	430.48
579.22	391.16
579.42	380.10
579.62	403.86
579.82	393.21
580.02	310.06
580.23	365.36
580.43	347.34
580.63	392.39
580.83	430.07
581.03	385.43
581.23	399.76
581.43	326.86
581.63	292.86
581.83	396.49
582.03	401.81
582.23	328.49
582.43	314.57
582.63	312.52
582.83	382.56
583.03	365.36
583.24	364.13
583.44	346.11
583.64	360.85
583.84	374.78
584.04	322.76
584.24	321.12
584.44	407.55
584.64	346.93
584.84	359.62
585.04	344.47
585.24	307.20
585.44	317.84
585.64	350.61
585.84	313.75
586.04	306.79
586.24	347.34
586.44	289.58
586.64	344.06
586.84	367.41
587.04	313.75
587.24	303.92
587.44	356.76
587.65	348.15
587.85	297.37
588.05	321.94
588.25	348.56
588.45	280.57
588.65	316.21
588.85	333.82
589.05	330.54
589.25	346.52
589.45	294.09
589.65	312.11
589.85	269.10
590.05	326.86
590.25	325.63
590.45	276.89
590.65	327.67
590.85	313.75
591.05	240.02
591.25	307.20
591.45	238.79
591.65	243.30
591.85	294.09
592.05	289.99
592.25	263.78
592.45	320.30
592.65	329.31
592.85	281.39
593.05	330.95
593.25	242.89
593.45	294.91
593.65	294.50
593.85	288.76
594.05	266.65
594.25	306.79
594.45	270.33
594.65	276.07
594.85	298.18
595.05	258.86
595.25	269.51
595.45	297.77
595.65	234.29
595.85	252.31
596.05	322.76
596.25	269.10
596.45	276.07
596.65	311.70
596.84	278.52
597.04	256.41
597.24	242.07
597.44	258.86
597.64	255.18
597.84	232.65
598.04	283.85
598.24	239.20
598.44	231.83
598.64	233.88
598.84	308.01
599.04	237.15
599.24	220.77
599.44	226.51
599.64	226.91
599.84	317.84
600.04	234.29
600.24	239.20
600.44	213.81
600.64	274.43
600.84	184.32
601.04	271.97
601.23	212.58
601.43	247.39
601.63	262.55
601.83	272.38
602.03	237.15
602.23	208.48
602.43	255.18
602.63	262.96
602.83	246.99
603.03	225.69
603.23	255.59
603.43	236.34
603.63	276.48
603.83	231.83
604.03	222.82
604.22	247.39
604.42	230.19
604.62	278.11
604.82	198.65
605.02	216.27
605.22	274.84
605.42	243.30
605.62	224.05
605.82	263.78
606.02	224.46
606.22	205.62
606.41	226.91
606.61	258.45
606.81	210.94
607.01	231.42
607.21	201.11
607.41	263.37
607.61	182.68
607.81	215.86
608.01	183.09
608.21	224.05
608.40	205.62
608.60	217.90
608.80	188.00
609.00	212.17
609.20	271.97
609.40	189.64
609.60	207.25
609.80	251.90
610.00	227.73
610.19	221.18
610.39	239.61
610.59	259.68
610.79	198.65
610.99	192.10
611.19	186.77
611.39	240.43
611.59	233.88
611.78	206.03
611.98	210.12
612.18	233.06
612.38	160.15
612.58	204.39
612.78	162.61
612.98	219.54
613.17	253.95
613.37	174.90
613.57	228.55
613.77	207.66
613.97	174.90
614.17	228.55
614.37	194.97
614.56	223.64
614.76	238.38
614.96	177.76
615.16	174.49
615.36	186.77
615.56	162.61
615.76	182.27
615.95	211.35
616.15	143.77
616.35	230.60
616.55	205.21
616.75	161.38
616.95	209.30
617.14	157.28
617.34	214.63
617.54	172.85
617.74	194.97
617.94	210.94
618.14	212.99
618.33	166.70
618.53	232.65
618.73	181.04
618.93	212.58
619.13	197.83
619.33	215.45
619.52	217.08
619.72	184.32
619.92	227.32
620.12	190.87
620.32	142.13
620.51	172.44
620.71	174.90
620.91	164.66
621.11	162.20
621.31	190.87
621.50	208.89
621.70	209.71
621.90	197.83
622.10	220.36
622.30	190.87
622.49	158.92
622.69	181.45
622.89	208.48
623.09	172.44
623.29	192.10
623.48	148.68
623.68	140.90
623.88	210.94
624.08	217.49
624.28	135.17
624.47	190.46
624.67	212.17
624.87	133.53
625.07	244.53
625.26	222.82
625.46	196.20
625.66	142.95
625.86	134.76
626.06	188.00
626.25	147.86
626.45	183.09
626.65	188.82
626.85	173.26
627.04	192.92
627.24	136.39
627.44	188.82
627.64	175.72
627.83	199.06
628.03	197.83
628.23	189.23
628.43	180.22
628.63	204.80
628.82	201.52
629.02	201.93
629.22	207.66
629.42	164.25
629.61	223.64
629.81	185.96
630.01	189.23
630.21	135.58
630.40	163.02
630.60	176.94
630.80	151.14
630.99	190.46
631.19	199.47
631.39	172.03
631.59	188.00
631.78	163.02
631.98	187.59
632.18	199.06
632.38	203.98
632.57	165.89
632.77	174.49
632.97	160.97
633.17	126.56
633.36	175.72
633.56	159.33
633.76	125.75
633.95	141.31
634.15	165.07
634.35	167.52
634.55	155.65
634.74	176.94
634.94	187.18
635.14	140.08
635.33	198.24
635.53	188.41
635.73	160.15
635.93	154.83
636.12	181.45
636.32	140.90
636.52	213.81
636.71	172.03
636.91	195.79
637.11	185.14
637.30	149.50
637.50	215.45
637.70	157.28
637.90	149.09
638.09	192.92
638.29	183.91
638.49	183.09
638.68	151.55
638.88	228.14
639.08	185.96
639.27	163.84
639.47	124.52
639.67	174.90
639.86	139.26
640.06	163.02
640.26	184.32
640.45	137.21
640.65	174.90
640.85	149.50
641.04	182.27
641.24	158.92
641.44	135.99
641.63	142.54
641.83	177.76
642.03	154.42
642.22	161.38
642.42	117.96
642.62	239.61
642.81	142.13
643.01	175.72
643.21	160.56
643.40	160.97
643.60	179.81
643.80	233.88
643.99	179.40
644.19	147.04
644.39	138.85
644.58	207.25
644.78	239.20
644.98	162.20
645.17	183.50
645.37	138.85
645.56	195.79
645.76	175.31
645.96	145.00
646.15	179.81
646.35	203.98
646.55	162.61
646.74	154.42
646.94	123.70
647.13	118.78
647.33	131.89
647.53	148.68
647.72	144.59
647.92	143.77
648.12	183.09
648.31	155.24
648.51	156.87
648.70	137.62
648.90	169.57
649.10	144.18
649.29	130.25
649.49	117.14
649.69	129.02
649.88	180.63
650.08	159.33
650.27	130.66
650.47	133.94
650.67	160.97
650.86	190.05
651.06	122.88
651.25	130.66
651.45	144.59
651.65	124.93
651.84	119.19
652.04	176.13
652.23	139.67
652.43	124.93
652.63	132.30
652.82	153.19
653.02	178.99
653.21	147.04
653.41	145.82
653.60	131.89
653.80	99.53
654.00	133.12
654.19	185.96
654.39	167.52
654.58	149.50
654.78	169.16
654.97	144.59
655.17	180.22
655.37	113.87
655.56	134.76
655.76	124.11
655.95	127.79
656.15	124.11
656.34	123.29
656.54	143.36
656.74	120.83
656.93	139.67
657.13	123.70
657.32	179.40
657.52	149.50
657.71	140.08
657.91	131.07
658.10	86.83
658.30	113.46
658.50	182.68
658.69	75.77
658.89	111.41
659.08	93.39
659.28	138.03
659.47	146.22
659.67	119.19
659.86	169.16
660.06	131.07
660.25	109.77
660.45	187.59
660.64	98.30
660.84	140.08
661.04	91.34
661.23	147.04
661.43	153.19
661.62	73.73
661.82	140.90
662.01	126.97
662.21	135.17
662.40	177.76
662.60	143.36
662.79	147.04
662.99	137.21
663.18	135.58
663.38	126.56
663.57	111.41
663.77	107.31
663.96	193.74
664.16	105.27
664.35	148.68
664.55	183.50
664.74	166.70
664.94	166.70
665.13	176.94
665.33	146.63
665.52	127.79
665.72	111.82
665.91	142.54
666.11	154.01
666.30	145.41
666.50	77.00
666.69	123.29
666.89	88.06
667.08	125.75
667.28	106.49
667.47	176.13
667.67	130.66
667.86	131.07
668.06	135.99
668.25	101.99
668.45	146.22
668.64	127.38
668.84	111.00
669.03	115.10
669.22	132.71
669.42	95.03
669.61	96.66
669.81	119.60
670.00	137.62
670.20	196.61
670.39	133.94
670.59	147.04
670.78	95.44
670.98	75.37
671.17	139.67
671.37	152.78
671.56	148.27
671.75	-43.01
671.95	154.01
672.14	108.54
672.34	89.70
672.53	128.61
672.73	151.55
672.92	70.45
673.12	183.91
673.31	85.61
673.50	77.41
673.70	96.66
673.89	117.14
674.09	137.21
674.28	115.10
674.48	109.36
674.67	106.49
674.86	159.33
675.06	145.82
675.25	74.55
675.45	137.21
675.64	128.61
675.84	104.04
676.03	93.80
676.22	149.50
676.42	122.47
676.61	116.32
676.81	124.52
677.00	91.75
677.20	134.76
677.39	103.22
677.58	105.27
677.78	89.29
677.97	169.16
678.17	96.66
678.36	143.36
678.55	99.53
678.75	125.75
678.94	32.77
679.14	114.69
679.33	122.88
679.52	97.89
679.72	116.73
679.91	95.44
680.11	121.24
680.30	140.90
680.49	124.11
680.69	123.70
680.88	86.01
681.07	100.76
681.27	147.86
681.46	147.45
681.66	171.62
681.85	109.77
682.04	109.36
682.24	135.58
682.43	105.68
682.62	136.80
682.82	147.86
683.01	153.60
683.21	129.43
683.40	83.15
683.59	156.06
683.79	124.93
683.98	81.92
684.17	115.10
684.37	150.73
684.56	108.13
684.75	137.21
684.95	89.29
685.14	160.97
685.34	156.06
685.53	65.54
685.72	149.91
685.92	124.52
686.11	120.42
686.30	101.58
686.50	123.70
686.69	95.44
686.88	118.78
687.08	156.46
687.27	115.92
687.46	50.38
687.66	68.81
687.85	140.90
688.04	109.77
688.24	124.52
688.43	102.81
688.62	146.22
688.82	131.48
689.01	96.25
689.20	90.11
689.40	117.55
689.59	91.75
689.78	114.69
689.98	95.03
690.17	130.25
690.36	143.36
690.56	120.42
690.75	129.84
690.94	164.66
691.13	114.28
691.33	74.14
691.52	97.07
691.71	58.57
691.91	113.05
692.10	84.79
692.29	78.23
692.49	115.92
692.68	97.07
692.87	103.22
693.06	107.31
693.26	103.22
693.45	122.47
693.64	99.53
693.84	123.29
694.03	118.78
694.22	110.18
694.42	110.59
694.61	117.14
694.80	59.80
694.99	71.27
695.19	76.18
695.38	76.59
695.57	96.25
695.76	83.15
695.96	105.68
696.15	103.22
696.34	75.77
696.54	106.08
696.73	45.06
696.92	100.76
697.11	64.72
697.31	107.72
697.50	144.18
697.69	119.19
697.88	79.05
698.08	91.75
698.27	100.76
698.46	92.98
698.65	91.75
698.85	113.05
699.04	85.20
699.23	71.68
699.42	117.55
699.62	65.94
699.81	96.66
700.00	102.40
700.19	111.41
700.39	83.97
700.58	81.92
700.77	47.10
700.96	107.72
701.16	66.35
701.35	90.11
701.54	83.15
701.73	59.39
701.92	110.18
702.12	38.09
702.31	58.57
702.50	87.24
702.69	55.70
702.89	104.45
703.08	75.77
703.27	94.21
703.46	131.48
703.65	76.18
703.85	71.27
704.04	91.75
704.23	65.13
704.42	82.33
704.62	60.62
704.81	92.98
705.00	72.91
705.19	109.77
705.38	57.75
705.58	97.89
705.77	97.89
705.96	59.39
706.15	126.56
706.34	50.79
706.54	68.81
706.73	98.71
706.92	101.58
707.11	87.24
707.30	38.09
707.50	78.64
707.69	55.30
707.88	66.35
708.07	108.95
708.26	79.05
708.45	60.21
708.65	102.81
708.84	20.48
709.03	85.61
709.22	120.42
709.41	104.45
709.60	49.15
709.80	97.48
709.99	73.73
710.18	89.70
710.37	101.99
710.56	74.96
710.75	83.56
710.95	54.48
711.14	96.66
711.33	61.03
711.52	86.42
711.71	73.32
711.90	11.06
712.10	60.21
712.29	75.77
712.48	99.53
712.67	49.56
712.86	56.11
713.05	66.35
713.24	89.70
713.44	100.35
713.63	90.11
713.82	89.29
714.01	38.09
714.20	35.63
714.39	40.96
714.58	120.42
714.78	25.80
714.97	63.90
715.16	35.23
715.35	29.49
715.54	53.66
715.73	116.32
715.92	66.76
716.11	91.75
716.31	52.84
716.50	86.42
716.69	142.54
716.88	61.85
717.07	127.38
717.26	49.97
717.45	97.89
717.64	67.99
717.83	109.77
718.03	135.99
718.22	70.86
718.41	51.20
718.60	67.58
718.79	101.99
718.98	76.18
719.17	35.23
719.36	121.65
719.55	45.06
719.74	66.76
719.94	58.98
720.13	57.34
720.32	50.79
720.51	111.41
720.70	86.83
720.89	76.59
721.08	124.93
721.27	59.39
721.46	77.82
721.65	28.26
721.84	108.13
722.03	23.76
722.22	68.40
722.42	49.56
722.61	79.87
722.80	58.57
722.99	57.34
723.18	81.92
723.37	91.34
723.56	93.80
723.75	62.67
723.94	66.35
724.13	75.77
724.32	70.45
724.51	30.72
724.70	42.19
724.89	104.86
725.08	98.71
725.27	101.99
725.47	51.20
725.66	123.70
725.85	70.86
726.04	73.73
726.23	76.18
726.42	49.15
726.61	89.70
726.80	60.21
726.99	36.04
727.18	95.84
727.37	61.44
727.56	20.89
727.75	42.19
727.94	59.39
728.13	102.40
728.32	34.41
728.51	66.76
728.70	53.25
728.89	58.57
729.08	71.27
729.27	95.44
729.46	-0.82
729.65	61.85
729.84	89.70
730.03	24.58
730.22	96.66
730.41	24.58
730.60	83.56
730.79	135.17
730.98	9.01
731.17	56.11
731.36	74.14
731.55	53.25
731.74	26.21
731.93	71.27
732.12	52.02
732.31	47.51
732.50	-15.15
732.69	61.03
732.88	79.87
733.07	127.38
733.26	63.90
733.45	42.60
733.64	39.32
733.83	37.27
734.02	43.83
734.21	88.06
734.40	85.61
734.59	33.59
734.78	72.91
734.97	57.34
735.16	54.89
735.35	61.85
735.54	54.48
735.73	83.15
735.92	54.89
736.11	57.75
736.30	130.66
736.49	32.36
736.68	37.27
736.87	107.31
737.06	41.37
737.25	86.01
737.44	35.63
737.63	56.11
737.82	20.07
738.00	83.97
738.19	60.21
738.38	47.92
738.57	24.58
738.76	49.97
738.95	99.94
739.14	38.50
739.33	7.37
739.52	83.56
739.71	57.34
739.90	63.49
740.09	47.10
740.28	83.97
740.47	86.83
740.66	66.76
740.85	74.55
741.03	66.76
741.22	62.67
741.41	49.97
741.60	72.50
741.79	65.94
741.98	48.74
742.17	67.58
742.36	69.22
742.55	-5.73
742.74	110.18
742.93	44.65
743.12	34.41
743.30	48.33
743.49	81.92
743.68	57.75
743.87	29.90
744.06	61.44
744.25	44.65
744.44	0.00
744.63	18.02
744.82	59.80
745.01	88.06
745.19	113.87
745.38	74.14
745.57	-1.23
745.76	41.37
745.95	58.16
746.14	39.73
746.33	45.06
746.52	47.51
746.71	53.66
746.89	74.14
747.08	45.46
747.27	61.44
747.46	70.04
747.65	9.01
747.84	22.53
748.03	28.67
748.22	-17.20
748.40	97.48
748.59	29.90
748.78	109.36
748.97	22.53
749.16	24.58
749.35	50.38
749.54	49.97
749.72	-5.73
749.91	85.20
750.10	89.70
750.29	54.89
750.48	57.75
750.67	40.55
750.86	29.49
751.04	39.73
751.23	89.29
751.42	82.74
751.61	-0.82
751.80	17.61
751.99	87.65
752.18	53.66
752.36	53.25
752.55	22.53
752.74	67.99
752.93	-137.62
753.12	-10.65
753.31	80.28
753.49	9.01
753.68	41.78
753.87	65.13
754.06	14.75
754.25	22.12
754.43	70.45
754.62	86.01
754.81	43.01
755.00	40.14
755.19	2.46
755.38	16.79
755.56	72.09
755.75	46.28
755.94	58.16
756.13	56.93
756.32	57.75
756.50	79.87
756.69	50.79
756.88	20.07
757.07	31.95
757.26	62.67
757.44	22.12
757.63	73.32
757.82	34.82
758.01	22.53
758.20	-5.73
758.38	67.99
758.57	87.24
758.76	-9.83
758.95	56.93
759.13	39.32
759.32	28.26
759.51	52.84
759.70	11.47
759.89	33.59
760.07	42.60
760.26	54.89
760.45	82.74
760.64	-0.82
760.82	46.28
761.01	43.01
761.20	50.79
761.39	49.15
761.57	33.59
761.76	49.97
761.95	20.89
762.14	72.91
762.33	27.85
762.51	56.52
762.70	16.38
762.89	45.46
763.08	84.79
763.26	48.74
763.45	49.56
763.64	44.65
763.83	44.24
764.01	33.18
764.20	49.56
764.39	26.62
764.57	12.70
764.76	27.03
764.95	53.66
765.14	56.11
765.32	38.09
765.51	44.24
765.70	22.94
765.89	57.34
766.07	15.15
766.26	27.85
766.45	39.73
766.63	17.61
766.82	52.02
767.01	18.43
767.20	5.73
767.38	48.33
767.57	39.32
767.76	38.91
767.94	36.86
768.13	26.21
768.32	40.55
768.51	24.58
768.69	-11.88
768.88	-13.93
769.07	12.29
769.25	53.66
769.44	49.56
769.63	42.19
769.82	-11.88
770.00	13.93
770.19	13.11
770.38	36.04
770.56	3.69
770.75	20.48
770.94	35.23
771.12	32.77
771.31	-17.61
771.50	53.25
771.68	35.23
771.87	6.14
772.06	45.06
772.24	32.36
772.43	46.69
772.62	2.05
772.80	38.91
772.99	44.24
773.18	65.53
773.36	15.97
773.55	27.03
773.74	38.91
773.92	28.67
774.11	1.23
774.30	11.06
774.48	36.45
774.67	6.14
774.86	5.73
775.04	2.87
775.23	60.21
775.42	4.51
775.60	-9.83
775.79	25.80
775.98	41.37
776.16	58.98
776.35	17.61
776.53	17.20
776.72	15.56
776.91	24.58
777.09	41.78
777.28	50.38
777.47	22.12
777.65	26.21
777.84	67.99
778.03	-13.93
778.21	102.40
778.40	17.61
778.58	2.05
778.77	36.04
778.96	35.63
779.14	19.66
779.33	13.52
779.52	-8.19
779.70	71.68
779.89	17.20
780.07	22.12
780.26	55.70
780.45	41.78
780.63	59.39
780.82	5.73
781.00	28.67
781.19	-7.37
781.38	38.09
781.56	44.65
781.75	-6.55
781.93	78.64
782.12	56.52
782.31	31.95
782.49	29.49
782.68	31.54
782.86	33.59
783.05	51.61
783.23	5.32
783.42	18.02
783.61	1.23
783.79	54.48
783.98	6.14
784.16	-25.39
784.35	12.29
784.54	63.90
784.72	29.90
784.91	24.58
785.09	3.28
785.28	-23.76
785.46	11.06
785.65	31.95
785.83	31.54
786.02	-22.12
786.21	-7.37
786.39	61.44
786.58	10.24
786.76	-9.01
786.95	43.01
787.13	9.42
787.32	70.86
787.50	20.48
787.69	-2.46
787.88	96.66
788.06	33.18
788.25	47.51
788.43	47.92
788.62	72.09
788.80	37.68
788.99	43.83
789.17	49.15
789.36	-78.23
789.54	22.12
789.73	19.25
789.91	11.47
790.10	20.48
790.29	47.10
790.47	30.31
790.66	28.67
790.84	56.93
791.03	45.06
791.21	14.75
791.40	15.97
791.58	15.15
791.77	36.45
791.95	72.91
792.14	-22.53
792.32	27.03
792.51	21.71
792.69	-24.99
792.88	4.92
793.06	5.73
793.25	51.61
793.43	37.68
793.62	32.77
793.80	-5.32
793.99	41.78
794.17	42.19
794.36	39.32
794.54	5.73
794.73	-22.94
794.91	18.02
795.10	11.06
795.28	64.31
795.47	0.82
795.65	52.02
795.84	-2.05
796.02	57.34
796.20	36.04
796.39	27.85
796.57	2.87
796.76	14.75
796.94	-1.64
797.13	-26.62
797.31	-7.37
797.50	-6.14
797.68	22.12
797.87	-2.87
798.05	52.43
798.24	13.11
798.42	1.23
798.60	31.54
798.79	56.52
798.97	67.58
799.16	20.89
799.34	18.43
799.53	14.75
799.71	-20.48
799.90	56.93
800.08	-0.41
800.26	-1.23
800.45	60.21
800.63	-28.67
800.82	24.99
801.00	5.73
801.19	-63.08
801.37	90.52
801.56	59.39
801.74	-2.87
801.92	20.48
802.11	66.35
802.29	67.99
802.48	41.37
802.66	16.79
802.84	55.70
803.03	10.65
803.21	24.17
803.40	44.24
803.58	-17.61
803.77	20.48
803.95	54.89
804.13	10.65
804.32	54.48
804.50	-3.28
804.69	21.71
804.87	92.98
805.05	19.25
805.24	2.05
805.42	-9.01
805.61	27.03
805.79	50.38
805.97	-4.10
806.16	6.14
806.34	10.24
806.53	-3.28
806.71	25.39
806.89	-8.19
807.08	12.29
807.26	42.60
807.44	19.66
807.63	-1.23
807.81	25.80
808.00	52.84
808.18	4.10
808.36	3.69
808.55	20.07
808.73	27.44
808.91	8.60
809.10	-28.26
809.28	42.19
809.46	31.13
809.65	13.93
809.83	-17.61
810.02	86.83
810.20	34.41
810.38	38.09
810.57	17.20
810.75	38.50
810.93	31.95
811.12	38.91
811.30	50.38
811.48	10.24
811.67	8.60
811.85	45.46
812.03	68.40
812.22	25.39
812.40	38.50
812.58	-33.59
812.77	23.35
812.95	33.59
813.13	74.96
813.32	71.27
813.50	-40.14
813.68	31.54
813.87	-1.23
814.05	21.71
814.23	9.83
814.42	-34.00
814.60	22.94
814.78	40.55
814.97	19.25
815.15	20.89
815.33	47.10
815.51	45.87
815.70	-19.66
815.88	31.95
816.06	83.56
816.25	-11.06
816.43	46.28
816.61	3.28
816.80	22.53
816.98	33.59
817.16	67.17
817.34	33.59
817.53	-1.64
817.71	12.70
817.89	38.91
818.08	-12.70
818.26	-5.73
818.44	4.51
818.62	-25.80
818.81	95.84
818.99	-7.37
819.17	-31.13
819.36	22.12
819.54	23.35
819.72	47.10
819.90	11.06
820.09	24.17
820.27	8.60
820.45	3.69
820.63	-5.73
820.82	33.59
821.00	40.14
821.18	22.94
821.36	44.24
821.55	7.78
821.73	28.67
821.91	23.35
822.10	20.07
822.28	8.19
822.46	-20.89
822.64	9.83
822.82	-15.15
823.01	-6.55
823.19	-47.92
823.37	-8.19
823.55	-24.17
823.74	18.84
823.92	40.96
824.10	45.87
824.28	43.42
824.47	-7.37
824.65	15.15
824.83	-41.78
825.01	40.96
825.20	12.29
825.38	-1.64
825.56	-56.93
825.74	-20.48
825.92	17.61
826.11	28.67
826.29	-14.75
826.47	-10.65
826.65	23.76
826.83	33.59
827.02	-38.91
827.20	9.01
827.38	16.38
827.56	50.38
827.74	23.35
827.93	-22.53
828.11	-15.97
828.29	39.32
828.47	-18.02
828.65	56.93
828.84	13.52
829.02	19.25
829.20	22.12
829.38	15.97
829.56	29.08
829.75	-26.21
829.93	45.46
830.11	-14.34
830.29	16.38
830.47	14.75
830.65	-2.05
830.84	2.87
831.02	1.64
831.20	34.41
831.38	24.99
831.56	57.34
831.74	43.42
831.93	6.55
832.11	-4.92
832.29	4.51
832.47	-9.01
832.65	23.35
832.83	37.68
833.02	48.74
833.20	-18.84
833.38	30.72
833.56	-49.97
833.74	-4.10
833.92	-13.52
834.10	11.88
834.29	9.42
834.47	-14.34
834.65	24.58
834.83	-6.96
835.01	-7.37
835.19	-17.20
835.37	36.04
835.56	41.78
835.74	21.30
835.92	-11.47
836.10	-1.64
836.28	39.32
836.46	-8.19
836.64	17.61
836.82	-46.69
837.01	-16.38
837.19	-15.56
837.37	-52.02
837.55	8.60
837.73	9.42
837.91	18.02
838.09	-2.87
838.27	22.94
838.45	-70.04
838.64	-49.56
838.82	46.69
839.00	9.42
839.18	22.53
839.36	-40.96
839.54	9.42
839.72	31.95
839.90	-21.30
840.08	5.73
840.26	0.00
840.45	-27.03
840.63	13.52
840.81	14.75
840.99	-28.26
841.17	2.87
841.35	17.61
841.53	-21.30
841.71	14.34
841.89	-7.37
842.07	16.38
842.25	3.69
842.43	61.85
842.61	14.34
842.79	43.42
842.98	27.44
843.16	37.68
843.34	22.53
843.52	15.15
843.70	32.36
843.88	-10.24
844.06	1.23
844.24	52.02
844.42	4.10
844.60	9.42
844.78	2.46
844.96	14.34
845.14	-22.53
845.32	-22.53
845.50	9.42
845.68	-12.70
845.86	66.76
846.04	10.65
846.22	48.33
846.40	-9.01
846.58	22.94
846.77	0.00
846.95	-15.97
847.13	61.03
847.31	-18.02
847.49	17.61
847.67	9.42
847.85	-14.34
848.03	7.37
848.21	-2.05
848.39	-2.46
848.57	-8.19
848.75	11.88
848.93	-0.82
849.11	45.46
849.29	29.90
849.47	-27.44
849.65	13.93
849.83	-18.84
850.01	48.74
850.19	11.06
850.37	31.54
850.55	-2.05
850.73	53.25
850.91	39.73
851.09	0.00
851.27	-23.35
851.45	29.49
851.63	-25.80
851.81	-60.21
851.99	72.50
852.17	-0.41
852.35	11.47
852.53	-4.51
852.71	79.05
852.89	0.41
853.07	22.53
853.25	-3.69
853.42	-18.02
853.60	-21.30
853.78	18.43
853.96	-7.37
854.14	8.19
854.32	29.90
854.50	36.86
854.68	9.01
854.86	14.75
855.04	11.88
855.22	7.78
855.40	8.19
855.58	19.66
855.76	-2.87
855.94	-1.23
856.12	6.96
856.30	4.51
856.48	-6.14
856.66	46.69
856.84	30.31
857.02	-29.08
857.19	6.96
857.37	39.73
857.55	13.93
857.73	27.03
857.91	18.84
858.09	5.73
858.27	-55.70
858.45	52.84
858.63	0.00
858.81	13.52
858.99	45.06
859.17	-4.51
859.35	27.44
859.52	34.00
859.70	9.83
859.88	13.93
860.06	15.56
860.24	-7.78
860.42	-36.45
860.60	-2.87
860.78	1.23
860.96	-32.77
861.14	2.46
861.31	-32.36
861.49	8.60
861.67	51.61
861.85	-4.92
862.03	2.05
862.21	-22.94
862.39	35.23
862.57	72.09
862.75	24.99
862.92	50.38
863.10	18.02
863.28	-8.60
863.46	-6.96
863.64	-7.37
863.82	21.30
864.00	-26.21
864.18	31.95
864.35	26.62
864.53	-1.64
864.71	30.31
864.89	34.82
865.07	-13.93
865.25	-25.80
865.43	-49.97
865.61	-34.00
865.78	-24.17
865.96	33.59
866.14	11.88
866.32	-10.24
866.50	0.00
866.68	41.37
866.85	49.97
867.03	4.10
867.21	-30.72
867.39	-12.29
867.57	58.16
867.75	10.24
867.93	-2.05
868.10	23.35
868.28	-13.11
868.46	-18.02
868.64	-2.87
868.82	-17.61
868.99	-4.51
869.17	57.75
869.35	39.73
869.53	20.48
869.71	23.76
869.89	24.17
870.06	-19.25
870.24	27.44
870.42	-47.51
870.60	46.28
870.78	31.54
870.95	4.10
871.13	-24.17
871.31	43.83
871.49	11.06
871.67	-13.11
871.84	3.69
872.02	-18.02
872.20	24.58
872.38	-12.29
872.56	13.11
872.73	56.11
872.91	26.62
873.09	-3.28
873.27	-23.76
873.45	-42.19
873.62	-46.28
873.80	21.30
873.98	13.52
874.16	16.79
874.33	2.87
874.51	32.77
874.69	30.31
874.87	2.87
875.05	53.66
875.22	45.46
875.40	-45.87
875.58	-58.98
875.76	-13.11
875.93	-10.24
876.11	13.11
876.29	-34.00
876.47	-51.61
876.64	28.26
876.82	3.69
877.00	41.37
877.18	20.07
877.35	15.56
877.53	3.69
877.71	3.28
877.89	19.25
878.06	-4.92
878.24	31.95
878.42	-8.60
878.60	-15.15
878.77	-26.21
878.95	0.00
879.13	-0.82
879.30	14.34
879.48	0.82
879.66	15.97
879.84	6.96
880.01	-35.23
880.19	-11.47
880.37	-23.76
880.55	29.49
880.72	0.82
880.90	7.78
881.08	-34.41
881.25	33.59
881.43	17.20
881.61	-16.38
881.78	27.44
881.96	-7.78
882.14	-0.41
882.32	-21.71
882.49	15.15
882.67	0.82
882.85	26.21
883.02	10.24
883.20	4.51
883.38	61.44
883.55	11.06
883.73	-4.92
883.91	-11.06
884.08	-11.47
884.26	-11.88
884.44	-2.87
884.62	-14.75
884.79	0.82
884.97	-7.37
885.15	-73.32
885.32	40.55
885.50	49.15
885.68	-7.78
885.85	63.90
886.03	31.54
886.21	-10.65
886.38	20.07
886.56	24.58
886.74	13.11
886.91	-24.17
887.09	31.95
887.26	7.78
887.44	-13.52
887.62	4.10
887.79	2.87
887.97	-11.88
888.15	-9.01
888.32	19.25
888.50	-16.79
888.68	37.68
888.85	53.66
889.03	21.30
889.21	29.49
889.38	22.12
889.56	-19.66
889.73	-46.69
889.91	-47.10
890.09	-17.61
890.26	-28.67
890.44	-42.60
890.62	13.52
890.79	9.83
890.97	22.53
891.14	3.28
891.32	10.24
891.50	-6.96
891.67	-4.51
891.85	6.96
892.02	20.07
892.20	25.80
892.38	-19.25
892.55	13.11
892.73	-4.10
892.90	-24.58
893.08	33.59
893.26	41.37
893.43	-0.41
893.61	48.33
893.78	-21.71
893.96	-1.64
894.14	56.11
894.31	34.82
894.49	32.36
894.66	6.96
894.84	-11.06
895.01	-3.69
895.19	22.12
895.37	-0.82
895.54	-36.86
895.72	12.70
895.89	63.90
896.07	6.55
896.24	6.55
896.42	11.47
896.60	-21.30
896.77	-4.10
896.95	3.69
897.12	57.75
897.30	29.08
897.47	1.64
897.65	45.06
897.82	-6.14
898.00	52.84
898.18	-4.10
898.35	-13.11
898.53	14.75
898.70	-11.47
898.88	5.73
899.05	12.70
899.23	24.17
899.40	48.74
899.58	-14.34
899.75	45.46
899.93	2.05
900.10	-0.82
900.28	48.74
900.46	2.87
900.63	6.55
900.81	-13.93
900.98	-9.42
901.16	17.61
901.33	16.79
901.51	-18.43
901.68	7.78
901.86	0.41
902.03	33.59
902.21	-6.14
902.38	3.69
902.56	29.90
902.73	42.60
902.91	-38.91
903.08	-2.05
903.26	2.46
903.43	1.23
903.61	-18.84
903.78	54.48
903.96	47.92
904.13	-45.87
904.31	28.67
904.48	23.35
904.66	21.71
904.83	21.71
905.01	-4.10
905.18	69.22
905.36	-13.52
905.53	-34.82
905.70	15.97
905.88	38.09
906.05	18.84
906.23	-2.05
906.40	18.02
906.58	-12.29
906.75	-28.67
906.93	-32.36
907.10	5.32
907.28	-29.49
907.45	23.35
907.63	-19.25
907.80	-34.00
907.97	29.08
908.15	10.65
908.32	-8.60
908.50	53.66
908.67	-3.69
908.85	-11.88
909.02	12.70
909.20	-12.29
909.37	15.15
909.54	1.23
909.72	28.67
909.89	30.72
910.07	-55.70
910.24	16.38
910.42	19.25
910.59	-34.00
910.76	11.88
910.94	2.87
911.11	28.26
911.29	18.43
911.46	43.42
911.64	39.73
911.81	4.92
911.98	-9.83
912.16	27.44
912.33	4.10
912.51	3.69
912.68	-12.29
912.85	-6.14
913.03	7.78
913.20	24.58
913.38	18.43
913.55	56.11
913.72	-30.72
913.90	56.93
914.07	6.55
914.25	10.65
914.42	-24.17
914.59	2.87
914.77	-1.64
914.94	-30.72
915.11	39.32
915.29	-18.43
915.46	18.02
915.64	-3.69
915.81	28.67
915.98	-9.01
916.16	-40.96
916.33	4.51
916.50	-27.03
916.68	13.52
916.85	-11.88
917.03	23.76
917.20	21.71
917.37	36.45
917.55	10.24
917.72	-9.01
917.89	-18.02
918.07	-11.88
918.24	15.97
918.41	41.78
918.59	-11.47
918.76	-29.49
918.93	-30.31
919.11	-28.67
919.28	14.75
919.45	-4.10
919.63	4.51
919.80	4.92
919.97	19.66
920.15	13.93
920.32	23.76
920.49	69.63
920.67	9.83
920.84	-11.06
921.01	-28.67
921.19	4.10
921.36	-5.32
921.53	8.19
921.71	31.95
921.88	32.36
922.05	21.30
922.23	19.25
922.40	4.10
922.57	5.73
922.74	-6.96
922.92	-55.30
923.09	11.47
923.26	31.13
923.44	41.78
923.61	-23.35
923.78	47.51
923.96	-41.37
924.13	36.86
924.30	33.18
924.47	-6.55
924.65	-31.54
924.82	-22.12
924.99	16.38
925.17	40.55
925.34	-29.90
925.51	13.11
925.68	5.32
925.86	46.69
926.03	4.92
926.20	11.88
926.37	9.01
926.55	-4.51
926.72	36.04
926.89	50.38
927.06	-10.24
927.24	43.83
927.41	27.03
927.58	-6.96
927.75	0.82
927.93	9.42
928.10	8.60
928.27	24.17
928.44	15.15
928.62	-1.64
928.79	-58.98
928.96	-23.35
929.13	-23.76
929.31	-21.30
929.48	42.19
929.65	22.94
929.82	36.86
930.00	-29.49
930.17	-29.90
930.34	-2.05
930.51	-6.55
930.69	-1.23
930.86	21.71
931.03	-8.60
931.20	0.41
931.37	32.36
931.55	-17.61
931.72	53.25
931.89	-10.24
932.06	10.24
932.23	-33.59
932.41	34.00
932.58	-7.78
932.75	33.59
932.92	19.25
933.09	-13.52
933.27	-20.89
933.44	-0.82
933.61	-4.92
933.78	-37.68
933.95	-36.04
934.13	6.14
934.30	21.71
934.47	5.73
934.64	-7.37
934.81	-66.76
934.98	-13.52
935.16	0.00
935.33	34.82
935.50	-13.52
935.67	-19.66
935.84	8.19
936.02	6.14
936.19	-17.61
936.36	65.94
936.53	-0.82
936.70	-26.62
936.87	-34.00
937.05	18.02
937.22	1.64
937.39	-10.24
937.56	63.90
937.73	19.25
937.90	-44.24
938.07	-27.44
938.25	-20.48
938.42	36.45
938.59	-4.10
938.76	-6.14
938.93	26.62
939.10	-2.05
939.27	-8.60
939.45	18.43
939.62	43.42
939.79	-11.47
939.96	25.39
940.13	29.90
940.30	3.28
940.47	-6.14
940.64	18.84
940.82	-18.43
940.99	-45.87
941.16	-11.47
941.33	15.97
941.50	17.61
941.67	-8.60
941.84	-44.65
942.01	-36.86
942.18	10.24
942.36	-24.17
942.53	-13.93
942.70	-14.75
942.87	-4.92
943.04	35.63
943.21	-26.62
943.38	11.06
943.55	-64.72
943.72	163.84
943.89	12.70
944.06	-28.67
944.24	-31.95
944.41	-14.34
944.58	-6.55
944.75	0.82
944.92	35.63
945.09	-2.87
945.26	-19.66
945.43	-35.63
945.60	8.19
945.77	32.36
945.94	-65.94
946.11	18.43
946.28	11.47
946.45	-17.20
946.63	-4.92
946.80	-27.44
946.97	-0.41
947.14	-4.92
947.31	25.39
947.48	-16.38
947.65	17.61
947.82	-15.97
947.99	17.61
948.16	-29.90
948.33	-17.61
948.50	-37.27
948.67	-25.39
948.84	-38.09
949.01	26.62
949.18	-28.26
949.35	-32.36
949.52	31.95
949.69	24.99
949.86	5.32
950.03	39.32
950.20	-8.60
950.37	28.26
950.54	7.78
950.71	-2.46
950.88	-9.42
951.05	12.29
951.22	-9.42
951.39	-46.69
951.56	-4.92
951.73	-42.60
951.90	-27.03
952.07	-6.14
952.24	0.82
952.41	11.06
952.58	47.51
952.75	0.00
952.92	-13.52
953.09	-49.15
953.26	37.27
953.43	19.25
953.60	-20.07
953.77	2.05
953.94	-18.02
954.11	13.93
954.28	-40.55
954.45	11.06
954.62	-49.15
954.79	35.23
954.96	-17.20
955.13	-16.38
955.30	-40.96
955.47	2.87
955.64	6.14
955.81	20.89
955.98	-5.32
956.15	5.32
956.32	20.48
956.49	28.26
956.66	18.02
956.83	-4.92
957.00	-1.64
957.17	-19.66
957.34	34.82
957.51	13.93
957.68	44.65
957.84	54.07
958.01	-15.97
958.18	-6.55
958.35	-16.38
958.52	41.78
958.69	34.82
958.86	-3.69
959.03	13.93
959.20	-6.55
959.37	-3.28
959.54	-20.07
959.71	-13.52
959.88	-20.48
960.05	11.88
960.21	13.52
960.38	78.64
960.55	-4.51
960.72	19.66
960.89	-7.37
961.06	5.73
961.23	-39.73
961.40	22.12
961.57	22.12
961.74	32.36
961.90	-11.06
962.07	27.85
962.24	48.33
962.41	52.02
962.58	-18.84
962.75	15.15
962.92	-26.62
963.09	-20.89
963.26	-2.46
963.42	58.16
963.59	-18.02
963.76	24.99
963.93	-31.54
964.10	-18.84
964.27	-17.61
964.44	-39.32
964.61	-2.87
964.77	13.11
964.94	52.02
965.11	-7.78
965.28	22.94
965.45	58.57
965.62	-12.70
965.79	24.17
965.95	1.23
966.12	-15.97
966.29	31.54
966.46	26.21
966.63	45.87
966.80	12.29
966.97	4.51
967.13	26.21
967.30	22.94
967.47	10.65
967.64	69.63
967.81	42.19
967.98	14.34
968.14	-18.84
968.31	4.92
968.48	-9.42
968.65	36.04
968.82	-49.56
968.99	-30.72
969.15	24.99
969.32	49.15
969.49	20.07
969.66	29.08
969.83	24.58
969.99	-31.54
970.16	26.21
970.33	-28.67
970.50	15.56
970.67	-38.91
970.83	-2.87
971.00	29.49
971.17	27.44
971.34	43.83
971.51	4.92
971.67	-2.46
971.84	40.55
972.01	30.72
972.18	37.68
972.35	-0.82
972.51	-2.87
972.68	-2.46
972.85	23.76
973.02	1.64
973.19	2.46
973.35	-0.82
973.52	7.78
973.69	18.84
973.86	0.82
974.02	-2.87
974.19	13.52
974.36	17.61
974.53	-25.39
974.69	-12.70
974.86	46.28
975.03	-11.88
975.20	21.30
975.36	-35.23
975.53	4.10
975.70	28.67
975.87	-3.28
976.03	-16.38
976.20	-14.34
976.37	-11.88
976.54	-14.34
976.70	-31.95
976.87	-17.61
977.04	-25.39
977.21	-15.56
977.37	29.90
977.54	7.37
977.71	-12.29
977.88	12.29
978.04	-13.93
978.21	-39.32
978.38	32.77
978.54	-0.41
978.71	0.82
978.88	24.58
979.05	-18.02
979.21	3.69
979.38	-52.84
979.55	21.30
979.71	-12.70
979.88	-14.75
980.05	16.38
980.22	15.56
980.38	29.90
980.55	-11.47
980.72	-41.78
980.88	-14.75
981.05	21.30
981.22	-2.46
981.38	-13.52
981.55	0.00
981.72	-42.19
981.88	13.93
982.05	-4.51
982.22	25.80
982.38	29.49
982.55	-7.37
982.72	-11.88
982.88	2.05
983.05	10.65
983.22	2.46
983.38	-34.00
983.55	42.60
983.72	17.61
983.88	-7.37
984.05	-19.25
984.22	-14.34
984.38	-21.30
984.55	0.00
984.72	35.63
984.88	30.72
985.05	3.28
985.22	6.55
985.38	-18.43
985.55	-8.60
985.72	-14.75
985.88	47.92
986.05	-15.97
986.22	-56.52
986.38	5.32
986.55	27.44
986.71	-4.10
986.88	51.20
987.05	-1.64
987.21	16.79
987.38	19.66
987.55	-45.87
987.71	-21.71
987.88	34.41
988.04	-19.25
988.21	10.65
988.38	-11.47
988.54	17.20
988.71	-13.11
988.87	-12.70
989.04	7.78
989.21	-35.63
989.37	15.97
989.54	19.25
989.70	-0.00
989.87	24.99
990.04	63.90
990.20	-31.54
990.37	-8.19
990.53	48.33
990.70	36.04
990.87	12.70
991.03	-23.35
991.20	-60.62
991.36	2.46
991.53	15.56
991.69	-7.37
991.86	20.48
992.03	-13.11
992.19	-24.58
992.36	-39.73
992.52	-21.30
992.69	19.25
992.85	-48.33
993.02	27.44
993.18	38.91
993.35	13.93
993.52	3.69
993.68	-39.73
993.85	41.37
994.01	0.00
994.18	-10.24
994.34	50.79
994.51	6.96
994.67	-39.73
994.84	35.63
995.00	51.20
995.17	-8.19
995.34	1.23
995.50	-0.82
995.67	64.72
995.83	31.54
996.00	-19.25
996.16	-58.16
996.33	-2.46
996.49	-32.77
996.66	36.45
996.82	-2.46
996.99	14.75
997.15	37.68
997.32	37.27
997.48	25.80
997.65	0.82
997.81	-9.42
997.98	18.02
998.14	-8.19
998.31	-29.90
998.47	-26.62
998.64	-27.85
998.80	16.38
998.97	-37.27
999.13	29.90
999.30	-19.66
999.46	-11.47
999.63	13.11
999.79	-23.35
999.96	56.11
1000.12	-7.37
1000.29	23.35
1000.45	2.05
1000.62	-36.04
1000.78	38.50
1000.95	10.65
1001.11	-2.46
1001.28	-24.58
1001.44	2.46
1001.60	24.17
1001.77	31.54
1001.93	-5.73
1002.10	14.75
1002.26	-43.83
1002.43	14.75
1002.59	10.24
1002.76	-32.77
1002.92	24.17
1003.09	13.52
1003.25	-61.85
1003.41	-14.34
1003.58	-63.08
1003.74	2.05
1003.91	24.17
1004.07	-43.01
1004.24	11.47
1004.40	-6.14
1004.56	-11.47
1004.73	-15.56
1004.89	-18.84
1005.06	29.90
1005.22	-7.78
1005.39	30.31
1005.55	15.97
1005.71	-54.48
1005.88	-27.85
1006.04	3.28
1006.21	19.66
1006.37	39.32
1006.53	2.05
1006.70	30.72
1006.86	20.07
1007.03	9.83
1007.19	18.43
1007.35	-3.69
1007.52	-15.15
1007.68	-42.19
1007.85	-6.14
1008.01	22.12
1008.17	12.29
1008.34	23.35
1008.50	17.61
1008.67	-67.58
1008.83	-18.84
1008.99	1.64
1009.16	-22.53
1009.32	13.11
1009.48	4.51
1009.65	-29.49
1009.81	29.90
1009.98	12.70
1010.14	-4.51
1010.30	-23.76
1010.47	13.11
1010.63	20.07
1010.79	3.69
1010.96	13.11
1011.12	-25.39
1011.28	11.47
1011.45	18.02
1011.61	23.35
1011.78	-32.77
1011.94	-4.92
1012.10	-0.41
1012.27	17.20
1012.43	-2.87
1012.59	16.38
1012.76	4.92
1012.92	-6.14
1013.08	13.52
1013.25	-21.71
1013.41	-4.10
1013.57	22.12
1013.74	-15.97
1013.90	2.46
1014.06	45.06
1014.22	-9.42
1014.39	-1.23
1014.55	20.07
1014.71	-48.74
1014.88	54.07
1015.04	34.41
1015.20	25.39
1015.37	-3.28
1015.53	4.51
1015.69	-28.26
1015.86	2.05
1016.02	-29.49
1016.18	19.66
1016.34	3.28
1016.51	-13.11
1016.67	-6.55
1016.83	-6.14
1017.00	-19.25
1017.16	-17.61
1017.32	-29.49
1017.48	-38.91
1017.65	-14.75
1017.81	-7.37
1017.97	-61.03
1018.14	47.10
1018.30	-4.92
1018.46	4.51
1018.62	4.92
1018.79	-35.23
1018.95	-19.66
1019.11	27.03
1019.27	66.76
1019.44	24.58
1019.60	8.60
1019.76	-6.14
1019.92	31.54
1020.09	-20.07
1020.25	0.41
1020.41	-26.62
1020.57	57.75
1020.74	-54.89
1020.90	37.27
1021.06	-40.14
1021.22	-22.12
1021.39	-22.94
1021.55	13.93
1021.71	-14.34
1021.87	0.82
1022.04	47.51
1022.20	14.34
1022.36	53.25
1022.52	-43.42
1022.68	53.25
1022.85	-21.30
1023.01	63.08
1023.17	-16.79
1023.33	-4.10
1023.50	16.79
1023.66	-34.00
1023.82	-4.92
1023.98	-5.32
1024.14	29.08
1024.31	7.78
1024.47	-20.48
1024.63	4.10
1024.79	56.11
1024.95	-20.48
1025.12	-53.66
1025.28	15.15
1025.44	38.09
1025.60	-34.82
1025.76	78.64
1025.93	35.63
1026.09	34.00
1026.25	11.88
1026.41	-19.66
1026.57	4.51
1026.73	-15.15
1026.90	-18.02
1027.06	45.87
1027.22	27.03
1027.38	3.69
1027.54	6.14
1027.70	27.03
1027.87	-38.50
1028.03	-2.46
1028.19	-47.51
1028.35	-10.65
1028.51	-49.56
1028.67	22.12
1028.83	4.92
1029.00	26.62
1029.16	6.14
1029.32	-45.06
1029.48	-6.96
1029.64	-17.20
1029.80	-5.32
1029.96	-27.03
1030.13	-4.92
1030.29	33.59
1030.45	2.87
1030.61	-4.92
1030.77	20.07
1030.93	29.08
1031.09	-7.78
1031.25	-27.85
1031.42	35.23
1031.58	15.97
1031.74	-11.88
1031.90	-2.05
1032.06	-8.19
1032.22	-30.72
1032.38	2.87
1032.54	-7.37
1032.70	-4.51
1032.87	2.05
1033.03	-8.19
1033.19	15.97
1033.35	-0.82
1033.51	27.44
1033.67	-37.27
1033.83	56.52
1033.99	-21.30
1034.15	-51.20
1034.31	49.97
1034.48	-8.60
1034.64	-29.90
1034.80	-15.97
1034.96	-27.44
1035.12	-16.79
1035.28	9.42
1035.44	-14.34
1035.60	-55.70
1035.76	-3.28
1035.92	6.96
1036.08	36.86
1036.24	-25.80
1036.40	15.15
1036.56	6.55
1036.72	16.38
1036.89	-29.08
1037.05	32.77
1037.21	-20.89
1037.37	48.74
1037.53	-10.24
1037.69	13.93
1037.85	27.44
1038.01	-11.88
1038.17	39.32
>>>>>End Processed Spectral Data<<<<<
