SpectraSuite Data File
++++++++++++++++++++++++++++++++++++
Date: Mon Oct 20 21:19:22 GMT 2014
User: ammspsa
Dark Spectrum Present: Yes
Reference Spectrum Present: No
Number of Sampled Component Spectra: 1
Spectrometers: USB4E00404
Integration Time (usec): 1000000 (USB4E00404)
Spectra Averaged: 5 (USB4E00404)
Boxcar Smoothing: 0 (USB4E00404)
Correct for Electrical Dark: No (USB4E00404)
Strobe/Lamp Enabled: No (USB4E00404)
Correct for Detector Non-linearity: No (USB4E00404)
Correct for Stray Light: No (USB4E00404)
Number of Pixels in Processed Spectrum: 3648
>>>>>Begin Processed Spectral Data<<<<<
345.87	-52.43
346.08	-52.43
346.30	-52.43
346.51	15.15
346.72	34.82
346.94	36.86
347.15	3.69
347.37	-13.93
347.58	-5.32
347.79	-17.20
348.01	-10.24
348.22	1.23
348.43	-23.35
348.65	11.47
348.86	-8.60
349.08	-25.80
349.29	38.09
349.50	20.48
349.72	-47.10
349.93	-11.47
350.14	-21.30
350.36	5.32
350.57	-29.08
350.78	-1.64
351.00	-7.37
351.21	24.17
351.43	15.97
351.64	61.03
351.85	-14.75
352.07	-20.89
352.28	-8.19
352.49	-15.97
352.71	29.90
352.92	6.14
353.13	-1.64
353.35	78.64
353.56	-13.11
353.77	51.20
353.99	31.13
354.20	32.36
354.41	67.58
354.63	2.46
354.84	17.61
355.05	-25.39
355.27	48.74
355.48	-8.19
355.70	-23.76
355.91	-13.52
356.12	-9.42
356.34	3.28
356.55	46.28
356.76	-41.37
356.98	-1.23
357.19	-9.01
357.40	48.33
357.62	-32.36
357.83	-38.91
358.04	-68.81
358.26	9.42
358.47	15.56
358.68	-13.93
358.89	-28.26
359.11	41.78
359.32	34.41
359.53	39.32
359.75	24.99
359.96	-6.14
360.17	0.41
360.39	16.79
360.60	-24.58
360.81	42.19
361.03	-5.73
361.24	-20.07
361.45	26.21
361.67	3.69
361.88	15.15
362.09	4.92
362.31	-9.83
362.52	-7.37
362.73	9.01
362.94	19.66
363.16	-6.96
363.37	27.85
363.58	19.25
363.80	-21.30
364.01	-4.92
364.22	-4.51
364.44	45.06
364.65	34.82
364.86	-15.15
365.07	27.44
365.29	8.19
365.50	7.37
365.71	15.15
365.93	-23.35
366.14	43.42
366.35	11.47
366.56	17.20
366.78	33.59
366.99	-15.15
367.20	-20.48
367.42	7.37
367.63	-37.68
367.84	-27.03
368.05	44.65
368.27	15.15
368.48	34.41
368.69	-18.02
368.91	59.80
369.12	33.18
369.33	2.05
369.54	13.93
369.76	40.96
369.97	61.44
370.18	29.08
370.39	138.85
370.61	-8.19
370.82	26.62
371.03	65.53
371.24	-0.82
371.46	-7.37
371.67	29.49
371.88	-50.38
372.10	79.87
372.31	65.53
372.52	12.29
372.73	34.00
372.95	6.14
373.16	-50.38
373.37	1.23
373.58	-34.00
373.80	6.96
374.01	37.68
374.22	132.30
374.43	8.19
374.65	27.03
374.86	-38.91
375.07	31.95
375.28	45.06
375.50	25.80
375.71	29.49
375.92	12.29
376.13	8.19
376.34	29.08
376.56	52.84
376.77	-29.49
376.98	3.28
377.19	40.55
377.41	-32.36
377.62	33.18
377.83	36.86
378.04	36.04
378.26	37.27
378.47	4.92
378.68	32.77
378.89	-27.03
379.10	26.21
379.32	-4.51
379.53	39.73
379.74	-12.70
379.95	-4.92
380.17	-3.69
380.38	18.02
380.59	53.66
380.80	-29.08
381.01	15.15
381.23	0.00
381.44	38.91
381.65	28.26
381.86	-32.36
382.08	-16.79
382.29	52.02
382.50	-31.95
382.71	49.97
382.92	-8.60
383.14	-54.07
383.35	14.34
383.56	-4.92
383.77	-22.53
383.98	56.93
384.20	-34.82
384.41	-6.14
384.62	32.36
384.83	35.23
385.04	33.59
385.26	32.36
385.47	2.46
385.68	32.36
385.89	-44.65
386.10	51.61
386.32	-9.83
386.53	9.83
386.74	3.28
386.95	3.28
387.16	40.14
387.37	28.26
387.59	20.89
387.80	-18.84
388.01	34.82
388.22	-21.71
388.43	19.25
388.65	13.52
388.86	54.48
389.07	15.97
389.28	42.60
389.49	42.19
389.70	15.15
389.92	17.61
390.13	75.77
390.34	49.56
390.55	0.82
390.76	80.69
390.97	77.82
391.19	31.95
391.40	73.73
391.61	36.04
391.82	60.62
392.03	59.39
392.24	109.77
392.45	160.56
392.67	66.35
392.88	128.61
393.09	77.82
393.30	109.77
393.51	115.51
393.72	44.65
393.94	86.01
394.15	120.42
394.36	133.94
394.57	136.80
394.78	130.66
394.99	156.06
395.20	158.10
395.42	155.65
395.63	148.27
395.84	119.60
396.05	173.67
396.26	154.01
396.47	120.83
396.68	225.28
396.90	165.07
397.11	211.76
397.32	219.54
397.53	240.43
397.74	224.87
397.95	177.35
398.16	190.46
398.37	200.70
398.59	215.86
398.80	224.46
399.01	203.98
399.22	289.17
399.43	181.45
399.64	215.45
399.85	194.97
400.06	228.96
400.28	194.15
400.49	226.51
400.70	170.80
400.91	181.04
401.12	190.87
401.33	229.37
401.54	215.45
401.75	208.07
401.96	182.68
402.18	174.08
402.39	170.39
402.60	236.75
402.81	157.69
403.02	129.84
403.23	184.32
403.44	107.72
403.65	167.93
403.86	97.07
404.07	129.43
404.29	140.90
404.50	176.53
404.71	117.14
404.92	139.26
405.13	90.93
405.34	113.87
405.55	109.77
405.76	54.48
405.97	92.98
406.18	78.64
406.39	100.35
406.61	78.64
406.82	115.10
407.03	91.75
407.24	134.35
407.45	35.23
407.66	120.42
407.87	79.87
408.08	131.48
408.29	90.11
408.50	79.46
408.71	71.27
408.92	52.02
409.14	84.79
409.35	76.18
409.56	103.63
409.77	19.25
409.98	81.10
410.19	20.89
410.40	56.11
410.61	38.09
410.82	24.99
411.03	55.30
411.24	61.44
411.45	51.61
411.66	61.85
411.87	70.04
412.08	66.35
412.29	74.14
412.51	32.77
412.72	34.00
412.93	62.67
413.14	38.91
413.35	13.93
413.56	38.91
413.77	85.20
413.98	41.78
414.19	48.74
414.40	62.26
414.61	71.68
414.82	73.73
415.03	45.46
415.24	14.34
415.45	-10.65
415.66	54.89
415.87	-36.86
416.08	21.71
416.29	2.46
416.50	35.23
416.71	27.44
416.92	-7.37
417.13	75.77
417.34	73.32
417.55	11.47
417.77	12.29
417.98	14.75
418.19	62.26
418.40	-1.64
418.61	17.20
418.82	6.96
419.03	36.04
419.24	38.09
419.45	56.11
419.66	43.83
419.87	56.52
420.08	23.76
420.29	44.24
420.50	0.82
420.71	-31.95
420.92	2.46
421.13	3.69
421.34	35.23
421.55	-5.32
421.76	46.28
421.97	32.77
422.18	63.08
422.39	32.36
422.60	6.55
422.81	-11.88
423.02	15.15
423.23	39.32
423.44	23.76
423.65	2.46
423.86	30.72
424.07	13.52
424.28	36.45
424.49	34.00
424.70	22.94
424.91	4.10
425.12	7.37
425.33	41.37
425.54	10.65
425.75	49.15
425.96	61.03
426.17	32.77
426.38	-7.78
426.59	14.34
426.80	20.89
427.01	95.44
427.22	13.52
427.43	-8.19
427.64	7.78
427.84	57.75
428.05	41.78
428.26	52.43
428.47	46.28
428.68	-1.64
428.89	55.30
429.10	18.02
429.31	20.48
429.52	75.77
429.73	-23.35
429.94	20.89
430.15	-8.19
430.36	30.31
430.57	21.71
430.78	16.79
430.99	12.70
431.20	9.42
431.41	37.27
431.62	44.65
431.83	49.15
432.04	-25.39
432.25	23.76
432.46	43.01
432.67	18.02
432.87	19.25
433.08	24.99
433.29	74.55
433.50	5.73
433.71	19.25
433.92	-27.03
434.13	19.25
434.34	48.74
434.55	56.93
434.76	49.97
434.97	26.21
435.18	-9.42
435.39	33.59
435.60	55.70
435.81	18.02
436.02	40.55
436.22	-5.73
436.43	27.03
436.64	39.73
436.85	12.70
437.06	40.96
437.27	11.06
437.48	58.16
437.69	33.18
437.90	-21.30
438.11	52.84
438.32	72.50
438.53	36.04
438.74	-3.28
438.94	77.00
439.15	24.17
439.36	20.48
439.57	19.25
439.78	40.55
439.99	20.89
440.20	-13.93
440.41	49.15
440.62	36.45
440.83	49.97
441.04	53.25
441.24	28.26
441.45	22.12
441.66	25.80
441.87	30.31
442.08	22.53
442.29	31.54
442.50	12.29
442.71	76.18
442.92	-22.94
443.12	53.25
443.33	43.42
443.54	22.53
443.75	-7.37
443.96	22.94
444.17	57.34
444.38	64.72
444.59	54.89
444.80	24.58
445.00	34.82
445.21	12.70
445.42	19.66
445.63	29.08
445.84	27.44
446.05	19.66
446.26	39.32
446.47	37.27
446.67	11.88
446.88	23.35
447.09	31.54
447.30	-9.83
447.51	96.66
447.72	36.04
447.93	64.72
448.14	-16.79
448.34	38.09
448.55	74.55
448.76	35.63
448.97	35.63
449.18	20.89
449.39	32.36
449.60	65.13
449.80	61.44
450.01	62.26
450.22	-0.41
450.43	47.51
450.64	8.19
450.85	20.07
451.06	78.23
451.26	60.21
451.47	42.60
451.68	44.65
451.89	30.31
452.10	60.62
452.31	18.84
452.51	20.48
452.72	67.58
452.93	19.66
453.14	25.80
453.35	23.76
453.56	63.08
453.76	-2.46
453.97	39.32
454.18	24.17
454.39	66.76
454.60	19.66
454.81	19.66
455.01	3.28
455.22	2.05
455.43	45.46
455.64	19.66
455.85	54.48
456.06	15.97
456.26	20.48
456.47	110.59
456.68	13.11
456.89	2.46
457.10	27.85
457.30	43.42
457.51	32.36
457.72	29.49
457.93	34.00
458.14	14.34
458.34	30.72
458.55	100.76
458.76	26.62
458.97	42.60
459.18	22.12
459.39	23.35
459.59	-72.09
459.80	28.67
460.01	69.22
460.22	42.19
460.42	12.29
460.63	54.48
460.84	6.96
461.05	60.62
461.26	27.03
461.46	86.01
461.67	45.87
461.88	9.42
462.09	88.47
462.30	70.45
462.50	30.72
462.71	23.35
462.92	41.78
463.13	12.29
463.34	39.32
463.54	32.77
463.75	26.21
463.96	58.57
464.17	61.44
464.37	40.55
464.58	41.78
464.79	-11.88
465.00	63.08
465.20	64.72
465.41	-7.78
465.62	41.37
465.83	68.81
466.04	31.95
466.24	84.79
466.45	49.97
466.66	-30.31
466.87	24.17
467.07	56.52
467.28	45.46
467.49	47.51
467.70	60.62
467.90	29.90
468.11	43.42
468.32	61.44
468.53	39.32
468.73	78.23
468.94	45.87
469.15	16.79
469.36	49.15
469.56	33.59
469.77	19.66
469.98	36.86
470.19	34.41
470.39	90.93
470.60	20.48
470.81	31.95
471.02	46.69
471.22	53.66
471.43	43.01
471.64	47.51
471.85	77.82
472.05	76.59
472.26	74.96
472.47	96.66
472.67	22.53
472.88	19.66
473.09	65.13
473.30	47.10
473.50	39.32
473.71	69.63
473.92	85.20
474.12	43.01
474.33	79.46
474.54	43.83
474.75	28.26
474.95	6.96
475.16	97.89
475.37	33.18
475.57	70.04
475.78	26.62
475.99	27.44
476.20	-11.06
476.40	66.76
476.61	74.14
476.82	12.29
477.02	65.54
477.23	58.16
477.44	42.60
477.65	27.44
477.85	58.16
478.06	45.87
478.27	24.17
478.47	46.28
478.68	65.13
478.89	75.77
479.09	50.79
479.30	138.44
479.51	21.71
479.71	63.90
479.92	43.83
480.13	54.48
480.34	65.53
480.54	8.19
480.75	2.05
480.96	2.87
481.16	29.49
481.37	17.61
481.58	24.17
481.78	47.10
481.99	-0.41
482.20	24.17
482.40	41.37
482.61	43.83
482.82	59.80
483.02	48.33
483.23	68.40
483.44	36.04
483.64	69.22
483.85	29.90
484.06	58.16
484.26	31.95
484.47	4.10
484.68	33.18
484.88	15.97
485.09	43.01
485.30	27.85
485.50	3.69
485.71	9.83
485.92	71.27
486.12	15.97
486.33	67.17
486.54	84.38
486.74	31.95
486.95	44.24
487.15	40.55
487.36	-9.83
487.57	94.62
487.77	90.11
487.98	28.67
488.19	79.87
488.39	27.44
488.60	31.95
488.81	23.76
489.01	-10.65
489.22	40.96
489.42	47.51
489.63	45.46
489.84	40.55
490.04	54.89
490.25	18.43
490.46	58.16
490.66	72.91
490.87	35.23
491.08	58.16
491.28	52.43
491.49	93.80
491.69	67.17
491.90	81.10
492.11	66.35
492.31	56.52
492.52	24.58
492.72	40.55
492.93	117.55
493.14	54.07
493.34	36.45
493.55	73.32
493.75	86.83
493.96	67.17
494.17	51.20
494.37	64.31
494.58	95.44
494.79	61.85
494.99	129.02
495.20	47.51
495.40	122.06
495.61	102.81
495.81	102.81
496.02	45.06
496.23	93.39
496.43	58.98
496.64	62.26
496.84	126.97
497.05	137.21
497.26	120.01
497.46	83.97
497.67	75.37
497.87	50.79
498.08	79.05
498.29	71.27
498.49	69.22
498.70	108.54
498.90	76.59
499.11	95.84
499.31	105.68
499.52	93.39
499.73	106.49
499.93	118.78
500.14	119.60
500.34	138.85
500.55	136.80
500.75	104.86
500.96	126.56
501.17	108.95
501.37	111.41
501.58	98.30
501.78	148.68
501.99	76.18
502.19	101.17
502.40	110.18
502.60	185.55
502.81	154.42
503.02	124.52
503.22	115.10
503.43	145.00
503.63	118.37
503.84	116.73
504.04	115.92
504.25	171.21
504.45	89.70
504.66	126.15
504.87	108.95
505.07	142.54
505.28	124.93
505.48	119.60
505.69	122.88
505.89	134.76
506.10	159.74
506.30	162.61
506.51	80.69
506.71	124.93
506.92	207.25
507.12	164.25
507.33	145.82
507.53	146.22
507.74	183.09
507.95	162.20
508.15	135.17
508.36	205.62
508.56	95.03
508.77	150.32
508.97	166.30
509.18	183.91
509.38	146.22
509.59	188.82
509.79	147.45
510.00	189.23
510.20	167.52
510.41	165.48
510.61	245.35
510.82	141.31
511.02	192.10
511.23	240.84
511.43	227.73
511.64	236.75
511.84	178.17
512.05	206.84
512.25	181.04
512.46	224.05
512.66	244.53
512.87	172.44
513.07	222.82
513.28	238.79
513.48	220.77
513.69	268.28
513.89	210.94
514.10	242.89
514.30	303.10
514.51	296.55
514.71	267.46
514.92	277.29
515.12	294.09
515.33	237.56
515.53	201.93
515.74	254.36
515.94	288.76
516.14	330.13
516.35	308.01
516.55	275.66
516.76	292.04
516.96	232.65
517.17	269.51
517.37	308.83
517.58	339.96
517.78	358.39
517.99	320.30
518.19	353.48
518.40	313.75
518.60	332.18
518.81	326.04
519.01	371.91
519.21	378.06
519.42	338.73
519.62	405.09
519.83	321.12
520.03	377.24
520.24	381.74
520.44	398.53
520.65	375.60
520.85	434.99
521.06	446.87
521.26	398.53
521.46	434.58
521.67	455.47
521.87	389.93
522.08	429.66
522.28	424.75
522.49	358.80
522.69	430.48
522.90	443.18
523.10	456.70
523.30	450.96
523.51	484.96
523.71	496.43
523.92	453.42
524.12	433.76
524.33	464.07
524.53	527.97
524.73	497.66
524.94	548.45
525.14	476.36
525.35	565.24
525.55	516.91
525.75	516.91
525.96	518.14
526.16	561.14
526.37	534.52
526.57	516.09
526.78	600.46
526.98	632.41
527.18	531.65
527.39	531.65
527.59	622.58
527.80	582.44
528.00	610.70
528.20	681.15
528.41	671.32
528.61	657.40
528.82	667.23
529.02	669.69
529.22	676.24
529.43	641.42
529.63	681.15
529.84	748.74
530.04	744.23
530.24	717.20
530.45	727.44
530.65	740.96
530.86	783.96
531.06	795.02
531.26	789.70
531.47	799.12
531.67	766.35
531.87	874.48
532.08	758.16
532.28	818.37
532.49	786.83
532.69	850.32
532.89	848.27
533.10	889.23
533.30	865.47
533.50	790.11
533.71	894.55
533.91	886.36
534.12	899.88
534.32	905.20
534.52	930.60
534.73	986.71
534.93	982.62
535.13	968.28
535.34	925.68
535.54	968.28
535.74	975.65
535.95	1026.44
536.15	972.79
536.36	1077.64
536.56	1059.62
536.76	1039.14
536.97	1100.99
537.17	1066.99
537.37	1091.98
537.58	1125.56
537.78	1115.32
537.98	1085.01
538.19	1196.42
538.39	1186.18
538.59	1149.73
538.80	1148.50
539.00	1207.89
539.20	1210.76
539.41	1240.66
539.61	1305.38
539.81	1246.80
540.02	1276.70
540.22	1323.81
540.42	1263.19
540.63	1357.80
540.83	1359.44
541.03	1343.06
541.24	1313.16
541.44	1381.97
541.64	1328.31
541.85	1316.84
542.05	1373.78
542.25	1341.83
542.46	1430.71
542.66	1420.47
542.86	1403.68
543.07	1450.37
543.27	1472.49
543.47	1535.98
543.67	1482.32
543.88	1524.51
544.08	1499.52
544.28	1658.45
544.49	1608.47
544.69	1624.45
544.89	1698.18
545.10	1710.87
545.30	1583.49
545.50	1678.11
545.70	1663.36
545.91	1697.36
546.11	1814.50
546.31	1761.25
546.52	1936.56
546.72	1848.50
546.92	1949.26
547.13	1920.99
547.33	1978.75
547.53	1916.49
547.73	2088.93
547.94	2037.32
548.14	2115.55
548.34	2069.27
548.54	2099.17
548.75	2188.05
548.95	2254.40
549.15	2265.05
549.36	2221.64
549.56	2328.54
549.76	2293.72
549.96	2360.90
550.17	2399.81
550.37	2412.10
550.57	2432.17
550.77	2465.75
550.98	2458.38
551.18	2477.22
551.38	2564.47
551.59	2631.64
551.79	2647.20
551.99	2647.20
552.19	2764.35
552.40	2661.13
552.60	2722.57
552.80	2819.23
553.00	2837.26
553.21	2756.98
553.41	2823.74
553.61	2860.19
553.81	3007.24
554.02	3009.69
554.22	3048.20
554.42	3083.42
554.62	3169.03
554.83	3096.94
555.03	3176.81
555.23	3175.99
555.43	3297.64
555.63	3203.02
555.84	3259.96
556.04	3394.71
556.24	3428.30
556.44	3413.14
556.65	3529.88
556.85	3565.10
557.05	3467.62
557.25	3689.21
557.46	3653.58
557.66	3582.31
557.86	3718.29
558.06	3751.06
558.26	3850.59
558.47	3912.85
558.67	3921.86
558.87	3937.02
559.07	3988.62
559.27	4050.47
559.48	4155.33
559.68	4046.79
559.88	4188.92
560.08	4303.60
560.29	4259.78
560.49	4223.32
560.69	4346.61
560.89	4292.13
561.09	4476.04
561.30	4439.59
561.50	4528.47
561.70	4581.31
561.90	4601.79
562.10	4587.86
562.30	4666.09
562.51	4690.26
562.71	4817.64
562.91	4791.43
563.11	4904.07
563.31	4950.35
563.52	5024.08
563.72	5029.81
563.92	5061.35
564.12	5158.83
564.32	5206.76
564.53	5207.57
564.73	5316.94
564.93	5352.16
565.13	5394.76
565.33	5475.86
565.53	5483.23
565.74	5606.93
565.94	5658.95
566.14	5618.81
566.34	5697.04
566.54	5710.15
566.74	5904.70
566.95	5872.76
567.15	5909.21
567.35	6027.58
567.55	6016.52
567.75	6108.27
567.95	6118.10
568.16	6272.52
568.36	6279.48
568.56	6299.55
568.76	6290.13
568.96	6335.19
569.16	6500.25
569.36	6528.11
569.57	6589.95
569.77	6666.55
569.97	6698.09
570.17	6840.63
570.37	6811.95
570.57	6926.64
570.77	6986.44
570.98	7004.05
571.18	7069.59
571.38	7183.05
571.58	7178.54
571.78	7332.96
571.98	7386.20
572.18	7404.23
572.39	7470.17
572.59	7522.19
572.79	7764.26
572.99	7804.40
573.19	7775.73
573.39	7806.45
573.59	7890.41
573.79	8024.76
573.99	8075.96
574.20	8102.99
574.40	8176.72
574.60	8191.88
574.80	8387.25
575.00	8279.53
575.20	8548.22
575.40	8556.82
575.60	8630.96
575.80	8662.91
576.01	8767.76
576.21	8861.97
576.41	8981.98
576.61	9043.42
576.81	9044.65
577.01	9110.18
577.21	9188.42
577.41	9252.72
577.61	9303.92
577.81	9416.56
578.02	9462.03
578.22	9558.69
578.42	9573.84
578.62	9751.61
578.82	9648.39
579.02	9908.48
579.22	9927.73
579.42	9964.60
579.62	10061.67
579.82	10144.82
580.02	10280.39
580.23	10213.63
580.43	10356.99
580.63	10512.22
580.83	10414.33
581.03	10580.22
581.23	10640.43
581.43	10762.08
581.63	10882.09
581.83	10870.21
582.03	10973.43
582.23	11011.52
582.43	11146.68
582.63	11244.99
582.83	11222.87
583.03	11214.68
583.24	11458.79
583.44	11494.84
583.64	11453.06
583.84	11654.17
584.04	11599.70
584.24	11759.85
584.44	11691.03
584.64	11847.91
584.84	12139.13
585.04	12029.36
585.24	12191.15
585.44	12166.16
585.64	12269.79
585.84	12187.46
586.04	12442.64
586.24	12419.70
586.44	12405.78
586.64	12560.60
586.84	12631.05
587.04	12814.55
587.24	12696.59
587.44	12742.87
587.65	12807.18
587.85	12724.03
588.05	12945.21
588.25	13023.03
588.45	13000.51
588.65	13066.04
588.85	13148.78
589.05	13109.05
589.25	13330.23
589.45	13257.32
589.65	13437.13
589.85	13228.65
590.05	13383.89
590.25	13555.91
590.45	13503.49
590.65	13558.37
590.85	13684.12
591.05	13655.45
591.25	13647.25
591.45	13715.25
591.65	13712.79
591.85	13813.96
592.05	13870.07
592.25	13827.48
592.45	13832.80
592.65	14032.68
592.85	13863.93
593.05	13966.74
593.25	14084.29
593.45	14068.73
593.65	14023.67
593.85	14135.49
594.05	14068.73
594.25	14132.21
594.45	14169.08
594.65	14180.95
594.85	14223.55
595.05	14206.35
595.25	14348.89
595.45	14162.11
595.65	14307.52
595.85	14382.47
596.05	14499.62
596.25	14272.29
596.45	14346.43
596.65	14427.12
596.84	14366.50
597.04	14427.12
597.24	14364.04
597.44	14342.74
597.64	14457.84
597.84	14405.00
598.04	14440.23
598.24	14461.94
598.44	14363.63
598.64	14310.80
598.84	14567.20
599.04	14446.37
599.24	14313.66
599.44	14419.75
599.64	14389.44
599.84	14284.99
600.04	14431.63
600.24	14400.50
600.44	14292.36
600.64	14177.68
600.84	14325.54
601.04	14251.81
601.23	14194.88
601.43	14113.78
601.63	14198.98
601.83	14237.48
602.03	14144.91
602.23	14055.62
602.43	14065.45
602.63	14003.60
602.83	14010.97
603.03	13968.38
603.23	13813.14
603.43	13816.42
603.63	13886.46
603.83	13732.45
604.03	13776.28
604.22	13854.10
604.42	13729.99
604.62	13669.78
604.82	13613.26
605.02	13646.43
605.22	13607.52
605.42	13511.27
605.62	13506.35
605.82	13488.33
606.02	13313.84
606.22	13413.38
606.41	13082.01
606.61	13127.07
606.81	13206.94
607.01	13019.76
607.21	13114.37
607.41	12980.44
607.61	12928.83
607.81	12852.23
608.01	12835.85
608.21	12771.95
608.40	12662.18
608.60	12612.62
608.80	12533.57
609.00	12626.96
609.20	12339.42
609.40	12423.39
609.60	12350.07
609.80	12181.32
610.00	12185.41
610.19	12138.31
610.39	11972.02
610.59	11927.78
610.79	11570.61
610.99	11877.81
611.19	11616.49
611.39	11616.08
611.59	11500.16
611.78	11390.39
611.98	11280.62
612.18	11330.59
612.38	11272.02
612.58	11174.13
612.78	11157.74
612.98	11047.15
613.17	10917.72
613.37	10887.00
613.57	10855.87
613.77	10720.30
613.97	10685.48
614.17	10723.16
614.37	10581.44
614.56	10476.18
614.76	10286.95
614.96	10377.06
615.16	10153.83
615.36	10131.30
615.56	10001.46
615.76	9970.74
615.95	9895.78
616.15	9883.09
616.35	9737.27
616.55	9730.72
616.75	9556.23
616.95	9496.02
617.14	9387.07
617.34	9391.58
617.54	9257.23
617.74	9133.12
617.94	9077.83
618.14	8940.20
618.33	8979.11
618.53	8836.99
618.73	8789.88
618.93	8730.49
619.13	8693.63
619.33	8548.22
619.52	8518.32
619.72	8451.97
619.92	8369.23
620.12	8349.98
620.32	8190.65
620.51	8025.99
620.71	8079.65
620.91	7985.03
621.11	7881.40
621.31	7811.36
621.50	7646.71
621.70	7677.43
621.90	7587.31
622.10	7455.43
622.30	7427.57
622.49	7335.82
622.69	7239.98
622.89	7212.54
623.09	7085.56
623.29	7085.15
623.48	6945.07
623.68	6901.65
623.88	6761.98
624.08	6755.43
624.28	6712.01
624.47	6594.46
624.67	6588.73
624.87	6462.16
625.07	6345.43
625.26	6363.04
625.46	6333.55
625.66	6249.99
625.86	6040.28
626.06	6049.70
626.25	5991.95
626.45	5890.78
626.65	5869.48
626.85	5846.95
627.04	5776.09
627.24	5627.82
627.44	5599.97
627.64	5530.74
627.83	5502.48
628.03	5390.25
628.23	5320.62
628.43	5323.08
628.63	5233.38
628.82	5173.58
629.02	5103.54
629.22	5067.08
629.42	4998.68
629.61	4854.10
629.81	4888.09
630.01	4857.78
630.21	4754.97
630.40	4711.15
630.60	4623.49
630.80	4555.91
630.99	4605.06
631.19	4444.91
631.39	4440.41
631.59	4407.64
631.78	4356.44
631.98	4340.06
632.18	4215.13
632.38	4271.65
632.57	4137.31
632.77	4106.59
632.97	4055.39
633.17	3943.98
633.36	3953.40
633.56	3949.30
633.76	3851.82
633.95	3800.62
634.15	3724.85
634.35	3698.22
634.55	3667.50
634.74	3558.55
634.94	3597.87
635.14	3507.35
635.33	3412.74
635.53	3442.23
635.73	3403.72
635.93	3314.84
636.12	3344.33
636.32	3387.75
636.52	3251.36
636.71	3204.66
636.91	3163.70
637.11	3105.54
637.30	3051.88
637.50	3053.52
637.70	2986.35
637.90	2980.20
638.09	2942.93
638.29	2892.96
638.49	2884.77
638.68	2836.44
638.88	2800.80
639.08	2731.17
639.27	2782.78
639.47	2722.16
639.67	2650.89
639.86	2672.19
640.06	2627.54
640.26	2587.40
640.45	2490.74
640.65	2537.02
640.85	2491.15
641.04	2464.94
641.24	2397.76
641.44	2400.63
641.63	2314.20
641.83	2298.23
642.03	2218.36
642.22	2250.72
642.42	2281.03
642.62	2222.05
642.81	2184.36
643.01	2166.75
643.21	2162.65
643.40	2149.14
643.60	2069.68
643.80	2069.68
643.99	2011.11
644.19	1954.99
644.39	1993.90
644.58	1928.37
644.78	1931.23
644.98	1848.91
645.17	1846.86
645.37	1853.41
645.56	1838.26
645.76	1766.58
645.96	1794.43
646.15	1721.93
646.35	1731.35
646.55	1708.01
646.74	1696.95
646.94	1753.47
647.13	1602.33
647.33	1628.54
647.53	1655.58
647.72	1612.98
647.92	1575.71
648.12	1565.06
648.31	1488.05
648.51	1601.10
648.70	1493.79
648.90	1474.54
649.10	1419.65
649.29	1489.28
649.49	1440.54
649.69	1456.11
649.88	1434.81
650.08	1392.21
650.27	1360.26
650.47	1348.79
650.67	1340.19
650.86	1369.68
651.06	1296.77
651.25	1309.47
651.45	1287.35
651.65	1263.60
651.84	1296.77
652.04	1211.58
652.23	1168.57
652.43	1230.42
652.63	1275.47
652.82	1225.50
653.02	1139.08
653.21	1155.87
653.41	1184.14
653.60	1128.84
653.80	1098.53
654.00	1142.77
654.19	1090.34
654.39	1148.50
654.58	1082.15
654.78	1084.19
654.97	1044.46
655.17	1085.83
655.37	1017.84
655.56	1007.19
655.76	983.43
655.95	1060.03
656.15	1048.97
656.34	981.80
656.54	1021.94
656.74	1012.11
656.93	943.70
657.13	947.39
657.32	950.26
657.52	887.18
657.71	965.41
657.91	910.12
658.10	924.04
658.30	919.95
658.50	817.14
658.69	899.88
658.89	851.96
659.08	894.96
659.28	820.83
659.47	841.72
659.67	788.88
659.86	827.79
660.06	847.04
660.25	817.14
660.45	792.97
660.64	826.56
660.84	824.10
661.04	738.50
661.23	765.53
661.43	712.28
661.62	773.72
661.82	725.39
662.01	744.23
662.21	752.01
662.40	681.97
662.60	719.66
662.79	762.25
662.99	698.77
663.18	749.56
663.38	713.92
663.57	670.91
663.77	711.87
663.96	672.96
664.16	705.73
664.35	690.17
664.55	675.42
664.74	663.13
664.94	633.64
665.13	678.70
665.33	632.00
665.52	672.96
665.72	583.26
665.91	664.36
666.11	607.43
666.30	615.21
666.50	582.03
666.69	613.16
666.89	596.78
667.08	641.01
667.28	568.93
667.47	570.56
667.67	595.14
667.86	571.79
668.06	561.14
668.25	567.70
668.45	598.83
668.64	588.18
668.84	569.34
669.03	521.00
669.22	509.94
669.42	539.43
669.61	611.93
669.81	526.74
670.00	527.97
670.20	501.75
670.39	516.91
670.59	497.25
670.78	570.56
670.98	575.89
671.17	462.02
671.37	491.92
671.56	539.43
671.75	403.45
671.95	459.56
672.14	494.79
672.34	457.93
672.53	512.81
672.73	504.62
672.92	474.72
673.12	508.31
673.31	499.70
673.50	523.05
673.70	464.48
673.89	416.56
674.09	498.89
674.28	451.37
674.48	453.83
674.67	478.00
674.86	519.77
675.06	453.83
675.25	470.62
675.45	463.25
675.64	515.27
675.84	423.11
676.03	488.65
676.22	440.72
676.42	491.51
676.61	489.05
676.81	389.93
677.00	441.54
677.20	416.97
677.39	456.29
677.58	429.66
677.78	446.87
677.97	449.32
678.17	439.90
678.36	411.23
678.55	414.51
678.75	429.25
678.94	441.95
679.14	407.14
679.33	438.27
679.52	415.33
679.72	421.88
679.91	425.98
680.11	394.85
680.30	421.06
680.49	479.63
680.69	445.23
680.88	445.23
681.07	410.41
681.27	412.05
681.46	344.88
681.66	417.38
681.85	426.39
682.04	386.25
682.24	406.73
682.43	389.93
682.62	375.60
682.82	382.97
683.01	341.60
683.21	374.37
683.40	398.13
683.59	366.59
683.79	350.20
683.98	367.00
684.17	429.25
684.37	379.28
684.56	360.44
684.75	369.45
684.95	333.41
685.14	396.49
685.34	348.56
685.53	353.07
685.72	339.96
685.92	367.00
686.11	300.64
686.30	325.63
686.50	323.58
686.69	406.32
686.88	382.15
687.08	379.28
687.27	357.17
687.46	310.88
687.66	371.91
687.85	314.16
688.04	328.90
688.24	391.16
688.43	373.14
688.62	312.11
688.82	369.86
689.01	366.59
689.20	310.47
689.40	334.64
689.59	406.73
689.78	346.52
689.98	350.20
690.17	320.71
690.36	308.83
690.56	325.22
690.75	331.77
690.94	341.60
691.13	300.23
691.33	371.09
691.52	332.18
691.71	357.98
691.91	357.98
692.10	313.34
692.29	307.60
692.49	299.00
692.68	323.17
692.87	360.85
693.06	380.92
693.26	355.94
693.45	335.05
693.64	329.31
693.84	316.62
694.03	336.28
694.22	366.59
694.42	287.53
694.61	318.66
694.80	339.55
694.99	328.49
695.19	272.79
695.38	333.82
695.57	315.80
695.76	365.36
695.96	286.31
696.15	310.88
696.34	311.70
696.54	320.71
696.73	360.03
696.92	313.75
697.11	248.21
697.31	305.56
697.50	302.28
697.69	278.11
697.88	314.16
698.08	304.33
698.27	294.50
698.46	357.98
698.65	298.18
698.85	240.84
699.04	365.77
699.23	275.66
699.42	317.44
699.62	308.01
699.81	285.90
700.00	287.94
700.19	327.68
700.39	338.32
700.58	219.13
700.77	280.16
700.96	292.04
701.16	335.46
701.35	308.42
701.54	208.89
701.73	296.14
701.92	351.02
702.12	283.44
702.31	283.85
702.50	327.68
702.69	290.81
702.89	334.64
703.08	292.45
703.27	319.89
703.46	329.72
703.65	289.99
703.85	285.90
704.04	314.16
704.23	302.69
704.42	338.73
704.62	316.21
704.81	278.11
705.00	340.78
705.19	320.30
705.38	274.84
705.58	267.87
705.77	288.76
705.96	275.25
706.15	261.32
706.34	262.55
706.54	301.87
706.73	267.87
706.92	300.23
707.11	293.68
707.30	260.50
707.50	293.27
707.69	277.29
707.88	316.21
708.07	287.94
708.26	276.89
708.45	310.06
708.65	200.29
708.84	239.61
709.03	278.52
709.22	276.07
709.41	254.36
709.60	289.58
709.80	243.71
709.99	283.85
710.18	305.97
710.37	216.68
710.56	310.47
710.75	271.56
710.95	296.55
711.14	242.89
711.33	270.33
711.52	284.67
711.71	250.67
711.90	251.08
712.10	233.06
712.29	244.94
712.48	241.66
712.67	317.03
712.86	261.32
713.05	280.57
713.24	304.33
713.44	285.08
713.63	269.10
713.82	278.93
714.01	391.16
714.20	274.84
714.39	243.71
714.58	240.84
714.78	269.51
714.97	255.18
715.16	253.95
715.35	250.26
715.54	262.55
715.73	270.74
715.92	274.02
716.11	285.49
716.31	230.19
716.50	251.90
716.69	287.53
716.88	238.38
717.07	246.99
717.26	294.50
717.45	281.80
717.64	249.03
717.83	231.01
718.03	259.68
718.22	255.59
718.41	290.81
718.60	251.08
718.79	236.34
718.98	232.65
719.17	285.49
719.36	244.12
719.55	251.90
719.74	226.51
719.94	216.27
720.13	250.67
720.32	252.72
720.51	277.70
720.70	256.41
720.89	220.77
721.08	242.07
721.27	260.50
721.46	214.22
721.65	255.18
721.84	231.01
722.03	271.15
722.22	239.61
722.42	234.29
722.61	252.72
722.80	283.44
722.99	230.60
723.18	198.65
723.37	213.81
723.56	272.79
723.75	296.96
723.94	183.09
724.13	199.47
724.32	236.34
724.51	296.55
724.70	246.17
724.89	258.45
725.08	286.72
725.27	198.24
725.47	296.96
725.66	224.87
725.85	207.25
726.04	260.50
726.23	228.14
726.42	197.01
726.61	225.28
726.80	240.43
726.99	259.68
727.18	251.90
727.37	268.69
727.56	242.89
727.75	273.61
727.94	226.10
728.13	237.97
728.32	218.72
728.51	258.04
728.70	216.27
728.89	295.73
729.08	257.22
729.27	241.25
729.46	161.38
729.65	198.24
729.84	228.55
730.03	207.66
730.22	237.97
730.41	206.03
730.60	208.89
730.79	263.78
730.98	215.45
731.17	231.01
731.36	241.66
731.55	227.73
731.74	232.24
731.93	169.57
732.12	296.96
732.31	219.13
732.50	219.54
732.69	262.96
732.88	220.77
733.07	226.10
733.26	240.84
733.45	201.11
733.64	237.97
733.83	188.82
734.02	220.77
734.21	256.82
734.40	172.03
734.59	165.48
734.78	268.69
734.97	187.18
735.16	255.18
735.35	258.86
735.54	198.24
735.73	216.68
735.92	217.08
736.11	236.75
736.30	247.39
736.49	215.45
736.68	199.47
736.87	208.07
737.06	245.35
737.25	230.60
737.44	202.75
737.63	227.32
737.82	170.80
738.00	201.11
738.19	211.76
738.38	237.56
738.57	184.32
738.76	207.66
738.95	199.47
739.14	210.12
739.33	211.35
739.52	274.43
739.71	195.38
739.90	256.82
740.09	243.30
740.28	210.12
740.47	205.21
740.66	190.05
740.85	203.16
741.03	217.08
741.22	242.48
741.41	254.36
741.60	222.82
741.79	218.72
741.98	206.44
742.17	229.37
742.36	246.17
742.55	213.40
742.74	172.44
742.93	187.18
743.12	230.60
743.30	216.27
743.49	192.92
743.68	207.66
743.87	212.99
744.06	177.35
744.25	214.63
744.44	200.29
744.63	220.36
744.82	205.62
745.01	224.46
745.19	197.01
745.38	179.81
745.57	217.49
745.76	191.69
745.95	209.71
746.14	199.06
746.33	225.69
746.52	149.91
746.71	163.43
746.89	238.79
747.08	209.30
747.27	223.64
747.46	131.48
747.65	165.89
747.84	126.56
748.03	138.85
748.22	209.71
748.40	252.72
748.59	183.50
748.78	181.45
748.97	168.34
749.16	191.69
749.35	171.62
749.54	231.01
749.72	152.37
749.91	143.36
750.10	167.52
750.29	212.17
750.48	233.06
750.67	140.49
750.86	173.67
751.04	189.64
751.23	162.20
751.42	192.92
751.61	148.68
751.80	219.13
751.99	162.20
752.18	184.32
752.36	222.00
752.55	206.84
752.74	176.13
752.93	194.15
753.12	204.39
753.31	185.14
753.49	171.21
753.68	169.98
753.87	184.73
754.06	238.38
754.25	183.91
754.43	209.71
754.62	216.27
754.81	149.50
755.00	175.31
755.19	199.06
755.38	178.17
755.56	176.94
755.75	199.88
755.94	187.18
756.13	194.56
756.32	231.01
756.50	202.75
756.69	156.87
756.88	182.68
757.07	164.25
757.26	167.52
757.44	192.51
757.63	167.93
757.82	179.81
758.01	163.43
758.20	135.17
758.38	175.72
758.57	192.10
758.76	189.64
758.95	210.94
759.13	218.72
759.32	151.55
759.51	217.49
759.70	207.66
759.89	185.14
760.07	189.64
760.26	174.08
760.45	181.04
760.64	174.90
760.82	187.59
761.01	205.21
761.20	206.03
761.39	190.05
761.57	225.28
761.76	215.45
761.95	185.14
762.14	168.75
762.33	181.86
762.51	136.39
762.70	173.26
762.89	151.55
763.08	142.13
763.26	224.05
763.45	150.73
763.64	227.73
763.83	180.63
764.01	169.98
764.20	134.76
764.39	196.61
764.57	149.91
764.76	166.30
764.95	169.16
765.14	168.75
765.32	126.97
765.51	192.92
765.70	169.98
765.89	186.77
766.07	163.43
766.26	173.67
766.45	116.32
766.63	144.18
766.82	174.49
767.01	129.02
767.20	150.73
767.38	141.31
767.57	174.90
767.76	274.84
767.94	152.37
768.13	142.13
768.32	134.35
768.51	197.01
768.69	152.37
768.88	181.86
769.07	147.86
769.25	159.74
769.44	143.77
769.63	143.36
769.82	163.02
770.00	117.96
770.19	102.40
770.38	134.35
770.56	160.97
770.75	197.83
770.94	138.03
771.12	212.58
771.31	185.55
771.50	167.11
771.68	118.78
771.87	137.62
772.06	146.22
772.24	192.51
772.43	141.31
772.62	180.22
772.80	110.18
772.99	134.35
773.18	152.78
773.36	169.98
773.55	133.12
773.74	155.65
773.92	181.04
774.11	194.56
774.30	137.62
774.48	115.92
774.67	191.28
774.86	149.09
775.04	172.44
775.23	205.62
775.42	176.53
775.60	141.31
775.79	142.13
775.98	145.41
776.16	102.40
776.35	129.43
776.53	159.74
776.72	131.07
776.91	118.78
777.09	143.77
777.28	121.65
777.47	156.06
777.65	175.31
777.84	159.74
778.03	173.26
778.21	160.56
778.40	143.36
778.58	171.21
778.77	165.07
778.96	144.59
779.14	95.84
779.33	121.24
779.52	85.20
779.70	108.13
779.89	105.68
780.07	181.86
780.26	113.87
780.45	143.36
780.63	123.29
780.82	150.32
781.00	138.44
781.19	154.83
781.38	134.35
781.56	95.84
781.75	114.28
781.93	167.93
782.12	122.47
782.31	145.00
782.49	150.32
782.68	175.31
782.86	122.88
783.05	162.20
783.23	164.66
783.42	145.82
783.61	141.31
783.79	150.32
783.98	70.45
784.16	151.14
784.35	82.74
784.54	102.40
784.72	104.86
784.91	137.62
785.09	152.78
785.28	165.07
785.46	129.84
785.65	125.34
785.83	72.09
786.02	150.32
786.21	126.97
786.39	106.49
786.58	118.37
786.76	170.39
786.95	115.10
787.13	138.03
787.32	119.19
787.50	126.97
787.69	118.37
787.88	119.19
788.06	90.11
788.25	135.58
788.43	141.31
788.62	145.41
788.80	85.20
788.99	113.46
789.17	177.35
789.36	74.96
789.54	87.65
789.73	147.86
789.91	164.66
790.10	101.17
790.29	147.86
790.47	108.54
790.66	103.63
790.84	83.97
791.03	120.01
791.21	146.63
791.40	145.82
791.58	127.79
791.77	100.76
791.95	189.64
792.14	121.24
792.32	118.78
792.51	77.82
792.69	150.32
792.88	127.79
793.06	113.46
793.25	138.03
793.43	105.68
793.62	127.79
793.80	116.73
793.99	162.20
794.17	134.35
794.36	132.30
794.54	134.76
794.73	135.99
794.91	85.61
795.10	119.60
795.28	77.82
795.47	78.23
795.65	85.61
795.84	147.45
796.02	74.96
796.20	110.59
796.39	167.11
796.57	92.98
796.76	144.59
796.94	115.10
797.13	129.02
797.31	126.15
797.50	73.73
797.68	105.27
797.87	64.72
798.05	107.31
798.24	97.48
798.42	115.10
798.60	136.39
798.79	113.46
798.97	135.99
799.16	120.83
799.34	158.10
799.53	65.13
799.71	142.13
799.90	141.72
800.08	97.48
800.26	114.28
800.45	140.08
800.63	148.68
800.82	92.57
801.00	105.68
801.19	106.08
801.37	158.51
801.56	72.09
801.74	142.95
801.92	95.03
802.11	68.40
802.29	90.11
802.48	134.76
802.66	92.98
802.84	107.72
803.03	123.29
803.21	131.89
803.40	71.27
803.58	120.42
803.77	84.38
803.95	113.46
804.13	137.62
804.32	84.79
804.50	144.18
804.69	147.04
804.87	117.96
805.05	90.52
805.24	74.96
805.42	96.25
805.61	98.30
805.79	106.49
805.97	108.54
806.16	61.44
806.34	121.65
806.53	109.36
806.71	81.92
806.89	104.86
807.08	88.47
807.26	97.48
807.44	121.65
807.63	154.42
807.81	128.20
808.00	121.65
808.18	95.44
808.36	135.99
808.55	104.45
808.73	137.21
808.91	118.78
809.10	127.79
809.28	54.89
809.46	149.09
809.65	78.64
809.83	106.90
810.02	61.85
810.20	110.59
810.38	98.30
810.57	106.49
810.75	120.83
810.93	93.80
811.12	81.92
811.30	65.54
811.48	80.28
811.67	83.56
811.85	143.36
812.03	87.24
812.22	67.99
812.40	113.46
812.58	83.15
812.77	105.68
812.95	107.31
813.13	126.97
813.32	90.11
813.50	88.06
813.68	109.77
813.87	98.30
814.05	77.82
814.23	95.44
814.42	67.99
814.60	86.01
814.78	72.09
814.97	63.08
815.15	54.07
815.33	106.08
815.51	92.57
815.70	100.76
815.88	58.57
816.06	141.72
816.25	118.78
816.43	103.22
816.61	65.13
816.80	75.77
816.98	109.36
817.16	119.19
817.34	49.56
817.53	81.92
817.71	90.11
817.89	81.10
818.08	112.64
818.26	92.16
818.44	141.72
818.62	37.68
818.81	120.83
818.99	96.25
819.17	72.09
819.36	61.44
819.54	96.25
819.72	162.20
819.90	58.57
820.09	75.37
820.27	89.29
820.45	136.80
820.63	71.27
820.82	105.27
821.00	103.22
821.18	71.27
821.36	90.52
821.55	106.49
821.73	64.72
821.91	83.15
822.10	86.83
822.28	36.86
822.46	132.71
822.64	47.51
822.82	99.94
823.01	69.22
823.19	99.12
823.37	61.44
823.55	89.70
823.74	114.69
823.92	75.77
824.10	70.45
824.28	77.82
824.47	67.58
824.65	59.39
824.83	127.38
825.01	59.80
825.20	92.98
825.38	82.74
825.56	85.61
825.74	78.23
825.92	85.20
826.11	45.06
826.29	103.22
826.47	88.88
826.65	95.03
826.83	45.46
827.02	112.64
827.20	84.79
827.38	81.51
827.56	67.58
827.74	63.08
827.93	76.18
828.11	78.23
828.29	71.27
828.47	52.84
828.65	62.26
828.84	68.81
829.02	86.01
829.20	82.74
829.38	95.44
829.56	38.50
829.75	89.29
829.93	54.48
830.11	47.92
830.29	71.68
830.47	77.00
830.65	12.29
830.84	86.83
831.02	111.00
831.20	15.15
831.38	13.93
831.56	97.89
831.74	81.51
831.93	56.93
832.11	75.77
832.29	76.59
832.47	97.89
832.65	45.87
832.83	84.38
833.02	26.62
833.20	57.75
833.38	6.14
833.56	109.77
833.74	126.15
833.92	95.44
834.10	123.29
834.29	76.18
834.47	83.56
834.65	72.09
834.83	29.49
835.01	80.69
835.19	62.26
835.37	86.42
835.56	112.23
835.74	61.44
835.92	46.69
836.10	122.06
836.28	15.97
836.46	57.75
836.64	80.28
836.82	16.38
837.01	95.44
837.19	76.59
837.37	131.89
837.55	53.25
837.73	15.56
837.91	94.21
838.09	52.02
838.27	42.19
838.45	44.24
838.64	36.45
838.82	101.17
839.00	78.64
839.18	115.10
839.36	83.97
839.54	56.11
839.72	43.01
839.90	13.52
840.08	64.31
840.26	76.18
840.45	24.58
840.63	-14.75
840.81	72.91
840.99	44.65
841.17	127.38
841.35	105.27
841.53	36.04
841.71	56.11
841.89	36.86
842.07	41.37
842.25	77.82
842.43	29.90
842.61	50.38
842.79	63.90
842.98	40.14
843.16	51.20
843.34	85.20
843.52	64.31
843.70	82.74
843.88	40.14
844.06	44.24
844.24	67.17
844.42	44.65
844.60	54.07
844.78	92.57
844.96	74.14
845.14	32.77
845.32	81.10
845.50	53.66
845.68	81.51
845.86	92.98
846.04	65.53
846.22	18.43
846.40	65.94
846.58	88.88
846.77	60.21
846.95	37.27
847.13	68.40
847.31	18.43
847.49	55.30
847.67	-13.93
847.85	76.18
848.03	14.34
848.21	67.99
848.39	52.84
848.57	47.92
848.75	55.70
848.93	77.82
849.11	64.31
849.29	62.26
849.47	36.04
849.65	-5.73
849.83	71.27
850.01	41.78
850.19	66.35
850.37	90.11
850.55	40.14
850.73	67.99
850.91	83.15
851.09	82.33
851.27	24.58
851.45	32.77
851.63	81.10
851.81	28.26
851.99	75.37
852.17	28.26
852.35	93.80
852.53	83.97
852.71	45.46
852.89	61.03
853.07	89.70
853.25	70.45
853.42	-1.64
853.60	1.23
853.78	27.44
853.96	38.91
854.14	68.81
854.32	21.30
854.50	67.99
854.68	63.49
854.86	40.55
855.04	55.30
855.22	41.78
855.40	13.11
855.58	48.33
855.76	36.86
855.94	66.76
856.12	52.02
856.30	82.74
856.48	61.44
856.66	10.65
856.84	-2.46
857.02	56.93
857.19	63.08
857.37	79.87
857.55	14.75
857.73	25.80
857.91	67.17
858.09	53.25
858.27	80.28
858.45	31.13
858.63	61.44
858.81	37.27
858.99	56.52
859.17	64.72
859.35	87.24
859.52	58.57
859.70	54.07
859.88	63.49
860.06	101.58
860.24	64.31
860.42	32.36
860.60	2.87
860.78	42.60
860.96	104.86
861.14	48.74
861.31	52.02
861.49	72.50
861.67	90.52
861.85	45.87
862.03	78.23
862.21	7.37
862.39	70.45
862.57	29.90
862.75	70.86
862.92	74.14
863.10	73.32
863.28	69.63
863.46	47.51
863.64	41.78
863.82	36.04
864.00	53.66
864.18	54.07
864.35	22.12
864.53	27.03
864.71	27.44
864.89	52.02
865.07	41.78
865.25	37.68
865.43	55.70
865.61	35.63
865.78	36.04
865.96	47.92
866.14	56.93
866.32	33.59
866.50	36.04
866.68	49.56
866.85	44.65
867.03	27.44
867.21	47.10
867.39	33.59
867.57	44.24
867.75	64.31
867.93	31.13
868.10	-5.32
868.28	22.94
868.46	60.21
868.64	66.35
868.82	66.35
868.99	31.54
869.17	52.02
869.35	84.79
869.53	36.45
869.71	39.32
869.89	67.17
870.06	64.31
870.24	46.28
870.42	56.93
870.60	12.70
870.78	56.93
870.95	34.82
871.13	-1.64
871.31	36.86
871.49	35.63
871.67	6.55
871.84	52.02
872.02	32.36
872.20	56.11
872.38	34.00
872.56	74.55
872.73	-11.88
872.91	10.24
873.09	-5.32
873.27	55.70
873.45	38.91
873.62	58.98
873.80	27.03
873.98	43.01
874.16	51.20
874.33	13.93
874.51	61.85
874.69	43.01
874.87	36.45
875.05	-18.02
875.22	58.98
875.40	47.51
875.58	35.23
875.76	25.39
875.93	61.03
876.11	0.82
876.29	39.73
876.47	65.13
876.64	53.25
876.82	52.43
877.00	42.60
877.18	113.05
877.35	10.65
877.53	24.58
877.71	74.96
877.89	27.03
878.06	-7.37
878.24	63.08
878.42	39.32
878.60	40.55
878.77	67.58
878.95	-31.54
879.13	56.93
879.30	59.80
879.48	58.57
879.66	11.06
879.84	-4.51
880.01	81.92
880.19	0.41
880.37	33.18
880.55	15.15
880.72	38.91
880.90	6.96
881.08	-6.55
881.25	36.86
881.43	10.24
881.61	58.16
881.78	20.48
881.96	37.68
882.14	21.30
882.32	30.31
882.49	-7.37
882.67	0.00
882.85	50.79
883.02	44.24
883.20	97.07
883.38	38.50
883.55	12.29
883.73	59.39
883.91	39.73
884.08	29.08
884.26	21.30
884.44	11.06
884.62	-1.64
884.79	45.87
884.97	-4.92
885.15	-8.19
885.32	53.66
885.50	52.43
885.68	12.70
885.85	5.32
886.03	30.31
886.21	13.52
886.38	12.29
886.56	-10.24
886.74	72.50
886.91	13.11
887.09	99.94
887.26	58.57
887.44	95.84
887.62	35.63
887.79	63.90
887.97	26.62
888.15	65.13
888.32	32.36
888.50	24.17
888.68	52.84
888.85	15.56
889.03	-0.82
889.21	52.43
889.38	63.90
889.56	86.83
889.73	32.77
889.91	17.20
890.09	44.24
890.26	10.24
890.44	22.12
890.62	8.60
890.79	4.10
890.97	29.90
891.14	25.80
891.32	79.46
891.50	38.91
891.67	-1.64
891.85	59.39
892.02	34.41
892.20	9.83
892.38	70.04
892.55	45.87
892.73	16.38
892.90	66.76
893.08	20.48
893.26	35.63
893.43	39.32
893.61	85.61
893.78	21.71
893.96	-7.78
894.14	38.09
894.31	7.37
894.49	42.19
894.66	4.92
894.84	9.83
895.01	-5.32
895.19	43.42
895.37	2.87
895.54	99.94
895.72	3.69
895.89	36.45
896.07	-0.41
896.24	63.90
896.42	22.94
896.60	52.02
896.77	-9.01
896.95	-4.92
897.12	6.96
897.30	21.30
897.47	24.58
897.65	-9.83
897.82	-1.23
898.00	47.10
898.18	35.23
898.35	-42.60
898.53	-0.41
898.70	38.91
898.88	45.06
899.05	57.75
899.23	45.06
899.40	7.37
899.58	7.78
899.75	53.25
899.93	28.67
900.10	32.36
900.28	27.03
900.46	50.38
900.63	32.36
900.81	15.56
900.98	17.61
901.16	4.51
901.33	28.26
901.51	7.37
901.68	-6.96
901.86	25.80
902.03	10.24
902.21	24.17
902.38	5.32
902.56	97.07
902.73	27.44
902.91	-21.71
903.08	34.82
903.26	52.02
903.43	2.46
903.61	41.78
903.78	6.55
903.96	56.52
904.13	48.33
904.31	35.63
904.48	44.24
904.66	-29.08
904.83	14.75
905.01	-20.07
905.18	39.32
905.36	-31.54
905.53	74.14
905.70	-1.23
905.88	31.13
906.05	56.93
906.23	15.15
906.40	-0.41
906.58	-42.19
906.75	59.39
906.93	64.72
907.10	27.44
907.28	-7.78
907.45	94.62
907.63	4.10
907.80	7.78
907.97	49.97
908.15	24.17
908.32	-12.29
908.50	13.11
908.67	22.53
908.85	13.93
909.02	27.44
909.20	83.15
909.37	1.64
909.54	4.92
909.72	31.13
909.89	87.65
910.07	38.50
910.24	43.42
910.42	72.50
910.59	-8.19
910.76	-8.19
910.94	1.23
911.11	31.13
911.29	4.92
911.46	20.48
911.64	16.79
911.81	13.93
911.98	-19.25
912.16	-7.78
912.33	-17.61
912.51	-11.06
912.68	21.71
912.85	-46.69
913.03	69.22
913.20	52.02
913.38	-17.20
913.55	25.39
913.72	-11.06
913.90	27.03
914.07	-2.87
914.25	-20.07
914.42	-31.13
914.59	-1.23
914.77	8.60
914.94	18.84
915.11	56.11
915.29	33.59
915.46	-5.73
915.64	27.85
915.81	-25.39
915.98	8.19
916.16	49.97
916.33	42.19
916.50	17.20
916.68	58.16
916.85	25.80
917.03	44.24
917.20	-30.31
917.37	8.60
917.55	20.07
917.72	-21.71
917.89	37.27
918.07	-33.59
918.24	40.96
918.41	29.08
918.59	27.44
918.76	6.96
918.93	45.87
919.11	3.69
919.28	-6.96
919.45	44.24
919.63	5.73
919.80	11.06
919.97	42.60
920.15	37.27
920.32	30.31
920.49	26.21
920.67	29.08
920.84	14.75
921.01	-9.42
921.19	27.44
921.36	-7.37
921.53	5.73
921.71	8.19
921.88	-28.26
922.05	38.91
922.23	18.02
922.40	15.56
922.57	9.83
922.74	-11.47
922.92	27.85
923.09	11.06
923.26	32.36
923.44	9.01
923.61	-10.24
923.78	26.62
923.96	24.99
924.13	-28.26
924.30	-2.46
924.47	37.27
924.65	-38.50
924.82	7.37
924.99	18.02
925.17	90.93
925.34	32.36
925.51	38.91
925.68	29.49
925.86	24.99
926.03	26.62
926.20	-9.01
926.37	21.30
926.55	26.62
926.72	-34.00
926.89	1.23
927.06	-18.84
927.24	22.94
927.41	50.38
927.58	-4.10
927.75	37.27
927.93	12.29
928.10	4.51
928.27	-24.99
928.44	32.36
928.62	21.71
928.79	-30.31
928.96	53.66
929.13	3.28
929.31	2.87
929.48	-9.01
929.65	13.11
929.82	17.20
930.00	41.37
930.17	-46.28
930.34	-19.25
930.51	22.94
930.69	19.66
930.86	73.73
931.03	-14.34
931.20	51.61
931.37	43.83
931.55	0.00
931.72	22.12
931.89	58.57
932.06	-20.48
932.23	21.71
932.41	33.59
932.58	13.93
932.75	10.24
932.92	-1.64
933.09	-9.01
933.27	4.92
933.44	-0.82
933.61	0.82
933.78	11.06
933.95	-6.55
934.13	30.72
934.30	-28.26
934.47	31.54
934.64	-33.18
934.81	3.28
934.98	76.59
935.16	-4.92
935.33	55.70
935.50	39.32
935.67	-17.61
935.84	60.21
936.02	27.44
936.19	8.19
936.36	43.42
936.53	4.51
936.70	51.20
936.87	-4.51
937.05	22.53
937.22	31.54
937.39	-16.38
937.56	27.85
937.73	-36.04
937.90	-11.47
938.07	-0.82
938.25	8.19
938.42	31.13
938.59	51.61
938.76	-38.50
938.93	18.02
939.10	38.09
939.27	-26.21
939.45	5.32
939.62	-7.37
939.79	51.20
939.96	13.93
940.13	42.60
940.30	27.44
940.47	3.69
940.64	19.66
940.82	25.39
940.99	20.89
941.16	33.59
941.33	-9.83
941.50	-11.88
941.67	-0.41
941.84	-18.84
942.01	8.60
942.18	-12.29
942.36	15.97
942.53	43.42
942.70	-22.12
942.87	10.65
943.04	8.60
943.21	-2.46
943.38	-17.61
943.55	62.26
943.72	-61.44
943.89	4.92
944.06	10.24
944.24	16.79
944.41	5.73
944.58	26.62
944.75	-12.29
944.92	-28.67
945.09	-14.75
945.26	-23.76
945.43	4.10
945.60	-6.96
945.77	33.18
945.94	0.00
946.11	-18.02
946.28	45.46
946.45	27.03
946.63	15.56
946.80	18.43
946.97	11.88
947.14	10.24
947.31	-7.37
947.48	24.17
947.65	18.84
947.82	-11.47
947.99	56.52
948.16	47.10
948.33	1.23
948.50	7.78
948.67	88.47
948.84	-14.75
949.01	-10.24
949.18	12.70
949.35	-34.82
949.52	21.71
949.69	-1.23
949.86	10.24
950.03	4.92
950.20	-9.42
950.37	16.79
950.54	-15.15
950.71	94.62
950.88	8.19
951.05	2.46
951.22	36.04
951.39	26.62
951.56	8.60
951.73	-6.55
951.90	19.25
952.07	4.51
952.24	-14.75
952.41	55.30
952.58	-2.87
952.75	6.96
952.92	20.07
953.09	-8.60
953.26	22.94
953.43	18.43
953.60	-7.78
953.77	3.69
953.94	-0.82
954.11	-18.43
954.28	-4.10
954.45	52.02
954.62	-21.71
954.79	36.04
954.96	15.56
955.13	-8.60
955.30	13.93
955.47	75.37
955.64	-2.87
955.81	-22.94
955.98	-9.83
956.15	-18.84
956.32	-10.24
956.49	23.35
956.66	-2.87
956.83	-0.82
957.00	69.63
957.17	12.29
957.34	3.28
957.51	-40.55
957.68	9.42
957.84	11.47
958.01	16.79
958.18	40.14
958.35	-28.26
958.52	-13.52
958.69	16.79
958.86	59.39
959.03	52.02
959.20	-11.06
959.37	-31.54
959.54	39.73
959.71	9.01
959.88	40.14
960.05	34.00
960.21	43.42
960.38	0.82
960.55	25.39
960.72	43.01
960.89	21.30
961.06	-14.34
961.23	-2.87
961.40	11.47
961.57	15.97
961.74	-13.11
961.90	29.49
962.07	30.72
962.24	9.83
962.41	5.32
962.58	25.80
962.75	-45.46
962.92	26.21
963.09	13.11
963.26	10.65
963.42	-4.10
963.59	36.04
963.76	15.97
963.93	47.51
964.10	18.84
964.27	15.15
964.44	9.01
964.61	32.36
964.77	-8.60
964.94	-158.92
965.11	36.45
965.28	63.49
965.45	6.55
965.62	24.99
965.79	-6.55
965.95	23.35
966.12	-10.24
966.29	1.23
966.46	31.13
966.63	-15.56
966.80	-20.07
966.97	4.10
967.13	5.32
967.30	-7.78
967.47	-3.28
967.64	-19.66
967.81	16.38
967.98	-2.05
968.14	-39.73
968.31	5.32
968.48	32.36
968.65	41.78
968.82	15.15
968.99	27.44
969.15	-1.64
969.32	51.61
969.49	47.51
969.66	15.15
969.83	13.93
969.99	11.06
970.16	69.22
970.33	-6.55
970.50	-4.51
970.67	40.55
970.83	35.23
971.00	-3.69
971.17	-24.17
971.34	6.55
971.51	47.51
971.67	-9.01
971.84	24.58
972.01	-34.82
972.18	32.36
972.35	26.21
972.51	-48.74
972.68	-7.78
972.85	-2.05
973.02	-17.61
973.19	7.37
973.35	83.15
973.52	44.24
973.69	3.28
973.86	50.79
974.02	22.12
974.19	15.97
974.36	6.55
974.53	-4.10
974.69	-10.24
974.86	13.11
975.03	-2.05
975.20	-11.47
975.36	15.97
975.53	14.75
975.70	26.62
975.87	12.29
976.03	-28.67
976.20	-19.25
976.37	-0.41
976.54	17.61
976.70	56.52
976.87	-5.32
977.04	-31.54
977.21	69.63
977.37	-13.11
977.54	-16.38
977.71	26.62
977.88	0.41
978.04	36.45
978.21	29.49
978.38	-34.00
978.54	-6.14
978.71	-12.29
978.88	67.17
979.05	28.67
979.21	-4.51
979.38	28.67
979.55	19.25
979.71	-11.88
979.88	40.14
980.05	-7.78
980.22	6.14
980.38	41.78
980.55	17.61
980.72	-18.02
980.88	36.45
981.05	27.03
981.22	39.73
981.38	38.50
981.55	-1.64
981.72	29.90
981.88	-35.23
982.05	44.65
982.22	-13.93
982.38	3.69
982.55	-25.39
982.72	35.63
982.88	7.37
983.05	-14.75
983.22	16.79
983.38	-16.38
983.55	-1.64
983.72	-7.78
983.88	9.42
984.05	2.87
984.22	31.95
984.38	2.46
984.55	15.97
984.72	33.18
984.88	-14.75
985.05	31.95
985.22	-87.24
985.38	-2.87
985.55	14.34
985.72	-8.60
985.88	22.94
986.05	-22.94
986.22	34.82
986.38	20.48
986.55	24.58
986.71	-12.70
986.88	29.08
987.05	30.31
987.21	12.29
987.38	-29.08
987.55	23.76
987.71	16.79
987.88	15.15
988.04	10.65
988.21	-26.21
988.38	-12.29
988.54	20.07
988.71	54.48
988.87	40.55
989.04	1.23
989.21	28.26
989.37	32.36
989.54	21.30
989.70	27.85
989.87	28.26
990.04	-10.65
990.20	8.19
990.37	-26.21
990.53	-11.06
990.70	1.64
990.87	-15.56
991.03	22.12
991.20	16.38
991.36	35.63
991.53	-27.85
991.69	8.60
991.86	18.84
992.03	63.08
992.19	-9.42
992.36	21.30
992.52	3.28
992.69	100.35
992.85	-13.52
993.02	1.23
993.18	-42.60
993.35	-40.14
993.52	-13.52
993.68	-9.01
993.85	-47.10
994.01	30.72
994.18	9.01
994.34	-4.10
994.51	21.71
994.67	-17.20
994.84	-4.92
995.00	9.42
995.17	29.90
995.34	-25.39
995.50	20.89
995.67	8.60
995.83	29.08
996.00	-2.87
996.16	1.23
996.33	-795.84
996.49	6.55
996.66	-3.28
996.82	-2.05
996.99	-3.69
997.15	55.30
997.32	-14.34
997.48	-39.73
997.65	60.21
997.81	-3.69
997.98	49.15
998.14	6.96
998.31	-18.02
998.47	24.58
998.64	2.87
998.80	-13.11
998.97	36.86
999.13	-4.92
999.30	37.68
999.46	3.28
999.63	24.17
999.79	34.41
999.96	18.84
1000.12	-29.08
1000.29	13.93
1000.45	3.28
1000.62	-16.38
1000.78	-31.13
1000.95	11.06
1001.11	-37.68
1001.28	-7.78
1001.44	-22.94
1001.60	-17.20
1001.77	-24.58
1001.93	24.58
1002.10	-13.52
1002.26	2.05
1002.43	-15.56
1002.59	8.19
1002.76	37.27
1002.92	-4.92
1003.09	0.82
1003.25	26.21
1003.41	24.17
1003.58	-13.93
1003.74	0.41
1003.91	29.49
1004.07	12.29
1004.24	50.79
1004.40	-20.07
1004.56	22.53
1004.73	-24.17
1004.89	-45.06
1005.06	-20.07
1005.22	19.25
1005.39	-18.43
1005.55	17.61
1005.71	52.84
1005.88	-10.24
1006.04	-6.96
1006.21	15.15
1006.37	-31.13
1006.53	0.82
1006.70	-25.80
1006.86	3.69
1007.03	-14.75
1007.19	-12.29
1007.35	9.01
1007.52	-5.32
1007.68	9.83
1007.85	15.97
1008.01	26.62
1008.17	34.41
1008.34	31.13
1008.50	13.93
1008.67	44.65
1008.83	-9.42
1008.99	-5.32
1009.16	14.34
1009.32	12.70
1009.48	21.71
1009.65	34.82
1009.81	19.66
1009.98	-22.12
1010.14	15.97
1010.30	-15.56
1010.47	-5.32
1010.63	22.12
1010.79	-24.17
1010.96	20.48
1011.12	-4.92
1011.28	11.06
1011.45	-24.17
1011.61	18.43
1011.78	-25.80
1011.94	-8.19
1012.10	24.58
1012.27	1.64
1012.43	0.00
1012.59	-3.28
1012.76	-3.28
1012.92	43.83
1013.08	-1.64
1013.25	-4.10
1013.41	-3.28
1013.57	11.06
1013.74	-0.41
1013.90	-22.12
1014.06	11.88
1014.22	17.20
1014.39	3.28
1014.55	-6.96
1014.71	-22.94
1014.88	40.96
1015.04	63.90
1015.20	-21.71
1015.37	-2.46
1015.53	-2.87
1015.69	15.97
1015.86	4.51
1016.02	-36.04
1016.18	52.02
1016.34	7.78
1016.51	30.72
1016.67	-4.92
1016.83	52.02
1017.00	52.02
1017.16	-4.51
1017.32	38.50
1017.48	19.25
1017.65	-5.32
1017.81	1.64
1017.97	-29.49
1018.14	-30.31
1018.30	22.94
1018.46	1.23
1018.62	-36.86
1018.79	7.78
1018.95	-14.75
1019.11	-11.47
1019.27	11.88
1019.44	18.02
1019.60	-6.55
1019.76	11.06
1019.92	-13.52
1020.09	67.58
1020.25	-45.87
1020.41	18.43
1020.57	-35.63
1020.74	3.28
1020.90	-16.79
1021.06	-34.41
1021.22	14.75
1021.39	36.86
1021.55	-39.73
1021.71	28.67
1021.87	-15.56
1022.04	-12.70
1022.20	13.11
1022.36	-2.05
1022.52	5.73
1022.68	4.92
1022.85	25.39
1023.01	17.20
1023.17	-11.06
1023.33	-30.72
1023.50	24.17
1023.66	18.02
1023.82	-45.87
1023.98	-15.15
1024.14	-16.38
1024.31	-1.64
1024.47	7.37
1024.63	63.90
1024.79	65.94
1024.95	-32.77
1025.12	14.75
1025.28	-18.02
1025.44	25.80
1025.60	-5.32
1025.76	0.41
1025.93	-24.17
1026.09	27.85
1026.25	40.55
1026.41	1.64
1026.57	-30.72
1026.73	-0.82
1026.90	14.34
1027.06	6.96
1027.22	6.55
1027.38	27.03
1027.54	-34.82
1027.70	0.41
1027.87	15.15
1028.03	0.00
1028.19	4.51
1028.35	1.23
1028.51	21.71
1028.67	13.11
1028.83	-36.45
1029.00	-11.06
1029.16	30.72
1029.32	-5.73
1029.48	28.26
1029.64	-31.54
1029.80	-1.23
1029.96	-9.42
1030.13	28.67
1030.29	-3.69
1030.45	4.51
1030.61	-47.51
1030.77	35.63
1030.93	-31.13
1031.09	10.24
1031.25	49.15
1031.42	-28.26
1031.58	7.37
1031.74	-22.12
1031.90	43.83
1032.06	26.62
1032.22	15.97
1032.38	2.05
1032.54	4.51
1032.70	8.19
1032.87	-47.92
1033.03	1.64
1033.19	54.48
1033.35	10.24
1033.51	-1.64
1033.67	22.53
1033.83	48.74
1033.99	11.47
1034.15	-18.84
1034.31	-3.28
1034.48	34.82
1034.64	55.30
1034.80	16.38
1034.96	-31.95
1035.12	-12.70
1035.28	12.70
1035.44	-21.71
1035.60	8.19
1035.76	-4.92
1035.92	-17.20
1036.08	6.14
1036.24	1.64
1036.40	-31.95
1036.56	21.71
1036.72	34.00
1036.89	-5.32
1037.05	-4.10
1037.21	-4.51
1037.37	-0.82
1037.53	30.31
1037.69	11.06
1037.85	47.92
1038.01	30.31
1038.17	2.46
>>>>>End Processed Spectral Data<<<<<
