SpectraSuite Data File
++++++++++++++++++++++++++++++++++++
Date: Mon Oct 20 21:23:03 GMT 2014
User: ammspsa
Dark Spectrum Present: Yes
Reference Spectrum Present: No
Number of Sampled Component Spectra: 1
Spectrometers: USB4E00404
Integration Time (usec): 1000000 (USB4E00404)
Spectra Averaged: 5 (USB4E00404)
Boxcar Smoothing: 0 (USB4E00404)
Correct for Electrical Dark: No (USB4E00404)
Strobe/Lamp Enabled: No (USB4E00404)
Correct for Detector Non-linearity: No (USB4E00404)
Correct for Stray Light: No (USB4E00404)
Number of Pixels in Processed Spectrum: 3648
>>>>>Begin Processed Spectral Data<<<<<
345.87	-35.23
346.08	-35.23
346.30	-35.23
346.51	6.14
346.72	-21.71
346.94	53.66
347.15	11.47
347.37	9.01
347.58	1.64
347.79	-46.28
348.01	-16.38
348.22	8.19
348.43	75.37
348.65	24.99
348.86	20.89
349.08	-55.70
349.29	47.10
349.50	9.42
349.72	-77.82
349.93	37.27
350.14	27.85
350.36	45.87
350.57	22.94
350.78	34.41
351.00	-24.99
351.21	-11.06
351.43	3.69
351.64	9.42
351.85	-2.05
352.07	41.37
352.28	14.34
352.49	16.79
352.71	48.74
352.92	20.48
353.13	16.38
353.35	70.04
353.56	15.97
353.77	14.75
353.99	9.83
354.20	-3.28
354.41	43.42
354.63	-38.91
354.84	22.94
355.05	10.24
355.27	-2.05
355.48	-1.23
355.70	-1.64
355.91	0.82
356.12	21.30
356.34	11.06
356.55	52.43
356.76	-14.34
356.98	-12.70
357.19	-29.49
357.40	-4.51
357.62	-30.72
357.83	-30.72
358.04	-50.38
358.26	12.29
358.47	38.09
358.68	-28.67
358.89	14.75
359.11	14.75
359.32	15.97
359.53	-16.79
359.75	7.37
359.96	-2.87
360.17	20.07
360.39	5.73
360.60	-63.90
360.81	-9.83
361.03	40.14
361.24	-23.35
361.45	-9.42
361.67	-30.72
361.88	-17.20
362.09	-11.06
362.31	16.38
362.52	5.73
362.73	34.00
362.94	69.22
363.16	12.29
363.37	53.66
363.58	5.32
363.80	-1.64
364.01	-20.48
364.22	3.28
364.44	27.44
364.65	40.96
364.86	24.17
365.07	43.83
365.29	29.08
365.50	-20.89
365.71	4.10
365.93	-11.88
366.14	42.19
366.35	42.60
366.56	6.55
366.78	24.17
366.99	-10.65
367.20	-18.43
367.42	22.12
367.63	23.35
367.84	-43.42
368.05	21.30
368.27	27.85
368.48	7.78
368.69	28.67
368.91	58.16
369.12	45.46
369.33	-28.26
369.54	12.29
369.76	36.86
369.97	24.58
370.18	7.37
370.39	67.17
370.61	-4.10
370.82	200.70
371.03	19.66
371.24	13.52
371.46	37.27
371.67	39.73
371.88	-9.01
372.10	54.07
372.31	50.79
372.52	-18.02
372.73	72.91
372.95	20.89
373.16	-22.53
373.37	-11.47
373.58	-30.72
373.80	18.02
374.01	10.24
374.22	40.96
374.43	27.85
374.65	41.78
374.86	11.47
375.07	-5.73
375.28	-0.82
375.50	71.68
375.71	9.42
375.92	15.15
376.13	15.15
376.34	14.75
376.56	57.34
376.77	-22.12
376.98	4.51
377.19	54.89
377.41	3.69
377.62	33.18
377.83	64.31
378.04	59.39
378.26	20.89
378.47	21.71
378.68	12.29
378.89	-31.13
379.10	-12.29
379.32	-20.89
379.53	51.61
379.74	-22.12
379.95	-25.80
380.17	7.78
380.38	-3.28
380.59	61.85
380.80	-34.00
381.01	27.85
381.23	10.24
381.44	-15.97
381.65	56.93
381.86	-13.93
382.08	-11.88
382.29	51.20
382.50	-34.82
382.71	36.04
382.92	-9.83
383.14	-23.35
383.35	9.01
383.56	20.07
383.77	18.02
383.98	69.63
384.20	-39.73
384.41	-12.29
384.62	37.68
384.83	22.53
385.04	52.02
385.26	35.23
385.47	-4.92
385.68	42.19
385.89	-20.07
386.10	14.34
386.32	22.12
386.53	2.05
386.74	-0.41
386.95	51.20
387.16	58.16
387.37	2.46
387.59	-16.79
387.80	56.93
388.01	41.37
388.22	-25.80
388.43	1.23
388.65	29.08
388.86	50.79
389.07	27.44
389.28	36.45
389.49	33.18
389.70	10.65
389.92	17.20
390.13	62.67
390.34	87.65
390.55	32.77
390.76	64.72
390.97	36.86
391.19	10.65
391.40	67.17
391.61	-14.34
391.82	-1244.76
392.03	29.90
392.24	11.47
392.45	74.14
392.67	6.14
392.88	53.66
393.09	-32.77
393.30	111.00
393.51	26.21
393.72	65.13
393.94	34.82
394.15	75.37
394.36	82.74
394.57	56.52
394.78	101.58
394.99	101.58
395.20	94.21
395.42	93.39
395.63	98.30
395.84	90.52
396.05	120.83
396.26	118.78
396.47	83.56
396.68	132.71
396.90	102.81
397.11	124.52
397.32	125.75
397.53	156.06
397.74	111.82
397.95	96.66
398.16	79.87
398.37	139.67
398.59	123.70
398.80	138.03
399.01	63.90
399.22	183.09
399.43	124.93
399.64	75.37
399.85	137.21
400.06	154.42
400.28	119.19
400.49	101.58
400.70	78.64
400.91	90.11
401.12	135.99
401.33	145.00
401.54	103.22
401.75	133.94
401.96	78.23
402.18	145.00
402.39	95.84
402.60	108.13
402.81	104.45
403.02	44.24
403.23	96.25
403.44	69.22
403.65	67.58
403.86	86.01
404.07	86.83
404.29	63.08
404.50	114.69
404.71	49.56
404.92	72.50
405.13	48.74
405.34	96.66
405.55	58.98
405.76	27.44
405.97	68.40
406.18	64.31
406.39	31.13
406.61	40.96
406.82	70.86
407.03	17.20
407.24	67.99
407.45	59.39
407.66	3.69
407.87	7.78
408.08	97.89
408.29	64.72
408.50	57.75
408.71	97.48
408.92	45.06
409.14	52.84
409.35	15.97
409.56	65.94
409.77	22.12
409.98	63.90
410.19	-28.67
410.40	48.33
410.61	54.07
410.82	79.46
411.03	77.82
411.24	62.67
411.45	45.06
411.66	31.95
411.87	29.49
412.08	27.85
412.29	45.06
412.51	24.99
412.72	-0.41
412.93	26.62
413.14	2.87
413.35	-28.67
413.56	64.31
413.77	16.79
413.98	-15.97
414.19	72.50
414.40	44.24
414.61	69.22
414.82	40.55
415.03	19.25
415.24	12.70
415.45	21.30
415.66	83.97
415.87	9.01
416.08	16.79
416.29	23.76
416.50	26.62
416.71	3.28
416.92	14.75
417.13	62.67
417.34	58.98
417.55	17.61
417.77	4.10
417.98	11.47
418.19	54.89
418.40	-38.91
418.61	-18.84
418.82	36.86
419.03	4.92
419.24	24.99
419.45	14.75
419.66	57.75
419.87	26.21
420.08	-25.80
420.29	31.95
420.50	36.45
420.71	-24.58
420.92	-20.07
421.13	19.25
421.34	32.77
421.55	41.37
421.76	58.16
421.97	37.27
422.18	70.86
422.39	0.00
422.60	17.20
422.81	-38.91
423.02	-6.14
423.23	24.99
423.44	6.96
423.65	11.47
423.86	0.00
424.07	16.79
424.28	31.13
424.49	19.66
424.70	25.39
424.91	-4.51
425.12	-20.89
425.33	17.20
425.54	-0.41
425.75	-16.38
425.96	0.82
426.17	23.35
426.38	-15.15
426.59	-6.96
426.80	-1.23
427.01	40.96
427.22	11.88
427.43	43.01
427.64	24.17
427.84	25.80
428.05	47.51
428.26	26.62
428.47	45.87
428.68	-13.52
428.89	-15.56
429.10	-30.72
429.31	42.60
429.52	76.18
429.73	-35.63
429.94	-0.82
430.15	-18.02
430.36	-18.43
430.57	-3.69
430.78	2.05
430.99	3.28
431.20	-25.39
431.41	40.55
431.62	-12.29
431.83	49.56
432.04	-4.51
432.25	-0.00
432.46	53.25
432.67	-15.15
432.87	2.87
433.08	46.28
433.29	36.04
433.50	-3.69
433.71	14.34
433.92	-16.79
434.13	-13.52
434.34	48.74
434.55	40.14
434.76	59.80
434.97	8.60
435.18	38.91
435.39	34.00
435.60	7.78
435.81	13.52
436.02	10.65
436.22	-13.93
436.43	-15.56
436.64	18.02
436.85	-22.94
437.06	33.18
437.27	55.70
437.48	5.32
437.69	-20.07
437.90	-37.68
438.11	47.10
438.32	18.43
438.53	-1.23
438.74	-30.72
438.94	57.34
439.15	-3.28
439.36	0.00
439.57	23.35
439.78	-16.38
439.99	31.95
440.20	-13.11
440.41	26.62
440.62	-6.14
440.83	13.11
441.04	-3.28
441.24	15.15
441.45	15.97
441.66	12.29
441.87	43.01
442.08	14.34
442.29	28.26
442.50	13.52
442.71	40.96
442.92	-39.32
443.12	-36.45
443.33	-14.34
443.54	45.87
443.75	36.04
443.96	11.47
444.17	15.56
444.38	-3.69
444.59	16.38
444.80	-42.19
445.00	16.79
445.21	-3.69
445.42	2.46
445.63	37.27
445.84	16.79
446.05	-2.05
446.26	34.82
446.47	3.28
446.67	1.23
446.88	-24.99
447.09	24.17
447.30	-6.96
447.51	16.79
447.72	17.20
447.93	20.07
448.14	7.37
448.34	4.92
448.55	-6.96
448.76	-11.88
448.97	30.72
449.18	8.60
449.39	25.80
449.60	-35.63
449.80	25.80
450.01	57.75
450.22	9.01
450.43	-15.56
450.64	-6.96
450.85	30.31
451.06	1.64
451.26	10.24
451.47	16.79
451.68	6.55
451.89	0.00
452.10	8.60
452.31	23.35
452.51	4.10
452.72	18.84
452.93	20.07
453.14	16.38
453.35	41.78
453.56	23.76
453.76	14.75
453.97	37.27
454.18	11.47
454.39	4.51
454.60	-2.87
454.81	-33.18
455.01	-7.37
455.22	-2.87
455.43	18.43
455.64	11.47
455.85	36.86
456.06	-26.62
456.26	7.37
456.47	43.42
456.68	36.45
456.89	-43.42
457.10	22.12
457.30	36.86
457.51	-1.64
457.72	10.65
457.93	2.87
458.14	22.12
458.34	37.27
458.55	28.67
458.76	-7.78
458.97	19.66
459.18	28.67
459.39	27.85
459.59	-35.23
459.80	13.11
460.01	39.73
460.22	-19.25
460.42	7.37
460.63	8.60
460.84	16.79
461.05	39.32
461.26	16.38
461.46	38.09
461.67	0.00
461.88	45.87
462.09	45.06
462.30	28.67
462.50	-1.64
462.71	1.23
462.92	19.25
463.13	52.43
463.34	46.69
463.54	32.36
463.75	15.15
463.96	35.23
464.17	11.47
464.37	31.95
464.58	13.52
464.79	-19.66
465.00	47.51
465.20	3.28
465.41	-81.92
465.62	18.02
465.83	20.07
466.04	2.46
466.24	62.26
466.45	53.25
466.66	-52.84
466.87	-3.28
467.07	5.32
467.28	40.55
467.49	28.67
467.70	45.46
467.90	23.76
468.11	16.38
468.32	27.03
468.53	33.18
468.73	32.77
468.94	29.90
469.15	33.59
469.36	41.78
469.56	-21.71
469.77	1.23
469.98	-3.28
470.19	54.07
470.39	40.55
470.60	14.75
470.81	5.32
471.02	21.30
471.22	9.83
471.43	-41.78
471.64	38.09
471.85	46.69
472.05	12.70
472.26	61.03
472.47	25.39
472.67	29.49
472.88	-24.99
473.09	33.59
473.30	40.14
473.50	49.15
473.71	33.18
473.92	24.17
474.12	22.94
474.33	24.17
474.54	-4.92
474.75	16.38
474.95	-15.15
475.16	92.16
475.37	3.28
475.57	2.46
475.78	-52.84
475.99	17.20
476.20	-13.52
476.40	45.87
476.61	30.72
476.82	11.47
477.02	76.59
477.23	-25.80
477.44	33.59
477.65	-4.51
477.85	32.77
478.06	-2.87
478.27	21.30
478.47	14.34
478.68	38.91
478.89	29.90
479.09	0.00
479.30	25.80
479.51	12.70
479.71	2.87
479.92	-30.72
480.13	10.24
480.34	23.35
480.54	-70.04
480.75	-1.23
480.96	9.83
481.16	6.55
481.37	11.06
481.58	-20.48
481.78	-7.78
481.99	-35.23
482.20	7.37
482.40	-5.73
482.61	37.68
482.82	-16.38
483.02	-20.07
483.23	19.66
483.44	42.19
483.64	2.05
483.85	-43.42
484.06	3.28
484.26	-24.99
484.47	23.35
484.68	13.52
484.88	-9.42
485.09	31.13
485.30	-5.73
485.50	20.48
485.71	-29.90
485.92	51.20
486.12	-11.47
486.33	15.56
486.54	84.79
486.74	-25.80
486.95	13.11
487.15	-33.18
487.36	-33.59
487.57	37.27
487.77	33.18
487.98	52.84
488.19	-11.06
488.39	6.96
488.60	52.02
488.81	-9.01
489.01	-25.39
489.22	21.71
489.42	9.42
489.63	27.85
489.84	4.10
490.04	9.01
490.25	6.14
490.46	-27.03
490.66	58.98
490.87	-0.41
491.08	45.06
491.28	11.88
491.49	34.82
491.69	24.99
491.90	8.19
492.11	10.24
492.31	75.77
492.52	12.70
492.72	11.88
492.93	26.21
493.14	33.59
493.34	1.64
493.55	2.46
493.75	38.50
493.96	-18.43
494.17	-43.42
494.37	71.68
494.58	55.30
494.79	32.36
494.99	81.51
495.20	24.58
495.40	49.15
495.61	21.71
495.81	43.83
496.02	15.97
496.23	41.78
496.43	21.30
496.64	31.13
496.84	29.49
497.05	33.18
497.26	73.73
497.46	53.66
497.67	55.70
497.87	16.79
498.08	65.94
498.29	43.01
498.49	37.68
498.70	28.26
498.90	26.21
499.11	36.86
499.31	95.44
499.52	5.32
499.73	50.79
499.93	112.23
500.14	55.30
500.34	82.74
500.55	87.65
500.75	66.76
500.96	83.56
501.17	64.31
501.37	92.98
501.58	54.48
501.78	83.15
501.99	72.91
502.19	19.66
502.40	38.09
502.60	79.46
502.81	97.89
503.02	73.32
503.22	45.87
503.43	105.27
503.63	47.51
503.84	83.56
504.04	119.60
504.25	93.39
504.45	75.77
504.66	90.11
504.87	52.84
505.07	123.29
505.28	118.78
505.48	61.44
505.69	84.38
505.89	88.47
506.10	135.58
506.30	152.37
506.51	31.95
506.71	32.77
506.92	88.47
507.12	117.96
507.33	106.90
507.53	81.92
507.74	99.94
507.95	124.93
508.15	97.07
508.36	161.79
508.56	96.25
508.77	120.83
508.97	46.28
509.18	94.21
509.38	97.48
509.59	143.36
509.79	97.89
510.00	159.74
510.20	99.94
510.41	54.48
510.61	200.29
510.82	52.43
511.02	153.60
511.23	178.99
511.43	203.57
511.64	149.50
511.84	153.60
512.05	155.65
512.25	129.02
512.46	178.58
512.66	154.83
512.87	126.56
513.07	181.86
513.28	196.20
513.48	187.18
513.69	160.15
513.89	197.01
514.10	179.81
514.30	178.17
514.51	280.16
514.71	221.18
514.92	159.33
515.12	210.94
515.33	191.69
515.53	129.43
515.74	148.68
515.94	228.55
516.14	281.39
516.35	254.36
516.55	209.71
516.76	222.41
516.96	190.87
517.17	200.70
517.37	257.63
517.58	246.17
517.78	210.12
517.99	249.44
518.19	244.94
518.40	252.31
518.60	245.76
518.81	265.83
519.01	254.36
519.21	279.34
519.42	263.78
519.62	327.27
519.83	267.46
520.03	268.28
520.24	267.87
520.44	285.49
520.65	241.25
520.85	362.08
521.06	371.09
521.26	302.28
521.46	276.07
521.67	331.77
521.87	327.68
522.08	317.84
522.28	296.14
522.49	226.51
522.69	327.68
522.90	306.79
523.10	356.35
523.30	303.92
523.51	405.50
523.71	335.05
523.92	349.38
524.12	364.54
524.33	333.41
524.53	389.52
524.73	362.08
524.94	361.26
525.14	353.48
525.35	412.05
525.55	347.75
525.75	397.31
525.96	354.71
526.16	416.56
526.37	410.00
526.57	348.15
526.78	429.25
526.98	428.03
527.18	391.16
527.39	430.07
527.59	440.72
527.80	389.11
528.00	446.05
528.20	489.46
528.41	473.90
528.61	491.10
528.82	480.45
529.02	521.41
529.22	456.29
529.43	459.56
529.63	493.15
529.84	542.30
530.04	577.53
530.24	514.45
530.45	497.66
530.65	496.02
530.86	544.76
531.06	539.03
531.26	575.89
531.47	560.32
531.67	523.05
531.87	598.01
532.08	495.61
532.28	610.70
532.49	526.33
532.69	605.79
532.89	606.20
533.10	653.30
533.30	564.83
533.50	595.55
533.71	681.15
533.91	634.05
534.12	584.90
534.32	621.76
534.52	594.32
534.73	656.58
534.93	698.36
535.13	674.19
535.34	647.98
535.54	688.12
535.74	668.46
535.95	747.51
536.15	683.20
536.36	763.48
536.56	743.41
536.76	700.81
536.97	748.74
537.17	671.32
537.37	727.44
537.58	727.44
537.78	763.07
537.98	735.22
538.19	712.69
538.39	747.51
538.59	770.45
538.80	787.24
539.00	838.44
539.20	860.15
539.41	803.62
539.61	808.13
539.81	787.65
540.02	858.10
540.22	881.04
540.42	852.77
540.63	896.60
540.83	851.14
541.03	869.98
541.24	858.92
541.44	844.58
541.64	857.69
541.85	874.89
542.05	865.88
542.25	840.08
542.46	871.21
542.66	915.85
542.86	869.57
543.07	874.07
543.27	895.78
543.47	939.61
543.67	935.92
543.88	940.02
544.08	910.53
544.28	993.26
544.49	970.33
544.69	989.58
544.89	1027.26
545.10	1013.33
545.30	962.14
545.50	944.52
545.70	974.83
545.91	981.39
546.11	1017.84
546.31	1079.28
546.52	1122.29
546.72	1076.82
546.92	1133.76
547.13	1137.44
547.33	1141.13
547.53	1151.37
547.73	1252.95
547.94	1164.88
548.14	1213.63
548.34	1226.32
548.54	1256.63
548.75	1310.70
548.95	1272.61
549.15	1291.04
549.36	1226.32
549.56	1336.09
549.76	1312.75
549.96	1383.20
550.17	1351.66
550.37	1394.26
550.57	1341.83
550.77	1384.43
550.98	1404.91
551.18	1427.84
551.38	1442.18
551.59	1423.34
551.79	1431.12
551.99	1431.53
552.19	1562.60
552.40	1463.48
552.60	1453.65
552.80	1517.54
553.00	1528.60
553.21	1529.01
553.41	1538.02
553.61	1534.75
553.81	1630.18
554.02	1603.56
554.22	1638.37
554.42	1679.74
554.62	1671.14
554.83	1683.84
555.03	1698.59
555.23	1678.92
555.43	1709.23
555.63	1728.08
555.84	1753.06
556.04	1798.94
556.24	1785.83
556.44	1744.05
556.65	1822.69
556.85	1851.77
557.05	1789.92
557.25	1852.59
557.46	1855.05
557.66	1816.14
557.86	1880.44
558.06	1891.50
558.26	1930.82
558.47	1952.53
558.67	2003.32
558.87	1931.23
559.07	2061.08
559.27	2036.50
559.48	2025.03
559.68	1979.16
559.88	2065.17
560.08	2195.42
560.29	2146.27
560.49	2094.25
560.69	2115.14
560.89	2122.51
561.09	2203.61
561.30	2118.01
561.50	2243.34
561.70	2213.04
561.90	2257.27
562.10	2247.44
562.30	2300.28
562.51	2249.49
562.71	2330.18
562.91	2399.40
563.11	2356.39
563.31	2426.43
563.52	2398.17
563.72	2417.01
563.92	2439.13
564.12	2426.84
564.32	2452.65
564.53	2496.47
564.73	2527.19
564.93	2548.90
565.13	2578.80
565.33	2595.60
565.53	2627.13
565.74	2691.03
565.94	2596.41
566.14	2751.65
566.34	2716.84
566.54	2730.76
566.74	2729.53
566.95	2802.44
567.15	2747.15
567.35	2884.36
567.55	2781.14
567.75	2875.35
567.95	2895.01
568.16	2892.96
568.36	2950.30
568.56	2956.86
568.76	2955.22
568.96	2949.08
569.16	2997.82
569.36	2998.64
569.57	3053.93
569.77	3087.11
569.97	3047.79
570.17	3171.07
570.37	3132.16
570.57	3260.37
570.77	3209.58
570.98	3269.38
571.18	3235.79
571.38	3277.57
571.58	3311.57
571.78	3417.24
571.98	3431.58
572.18	3410.69
572.39	3489.33
572.59	3490.15
572.79	3619.17
572.99	3654.81
573.19	3555.27
573.39	3524.14
573.59	3567.15
573.79	3683.07
573.99	3689.21
574.20	3728.12
574.40	3756.79
574.60	3767.44
574.80	3853.87
575.00	3717.88
575.20	3876.40
575.40	3918.99
575.60	3948.48
575.80	4017.30
576.01	3956.27
576.21	4011.97
576.41	4078.32
576.61	4116.01
576.81	4176.63
577.01	4111.50
577.21	4173.35
577.41	4235.61
577.61	4287.22
577.81	4258.96
578.02	4344.97
578.22	4325.31
578.42	4367.09
578.62	4453.92
578.82	4450.24
579.02	4428.12
579.22	4572.70
579.42	4478.09
579.62	4657.90
579.82	4575.98
580.02	4717.29
580.23	4689.44
580.43	4748.42
580.63	4800.03
580.83	4810.27
581.03	4944.21
581.23	4850.82
581.43	5002.78
581.63	5047.83
581.83	5017.11
582.03	5101.08
582.23	5182.18
582.43	5201.84
582.63	5217.41
582.83	5217.41
583.03	5232.56
583.24	5344.79
583.44	5324.72
583.64	5329.22
583.84	5432.85
584.04	5469.31
584.24	5548.36
584.44	5594.64
584.64	5621.67
584.84	5693.76
585.04	5642.15
585.24	5811.32
585.44	5886.27
585.64	5794.52
585.84	5824.83
586.04	5935.01
586.24	6003.42
586.44	6135.71
586.64	6062.81
586.84	6120.97
587.04	6185.28
587.24	6281.94
587.44	6270.47
587.65	6261.46
587.85	6292.59
588.05	6333.14
588.25	6498.61
588.45	6577.26
588.65	6515.82
588.85	6679.25
589.05	6614.53
589.25	6754.61
589.45	6682.52
589.65	6753.38
589.85	6816.87
590.05	6826.70
590.25	6955.72
590.45	7007.33
590.65	7050.34
590.85	7192.47
591.05	7167.48
591.25	7309.20
591.45	7443.96
591.65	7450.92
591.85	7446.82
592.05	7532.84
592.25	7535.71
592.45	7547.17
592.65	7770.40
592.85	7610.25
593.05	7722.89
593.25	7794.57
593.45	7903.11
593.65	7839.21
593.85	8043.60
594.05	7956.77
594.25	8084.15
594.45	8071.04
594.65	8236.11
594.85	8128.80
595.05	8240.62
595.25	8398.72
595.45	8305.33
595.65	8552.32
595.85	8550.68
596.05	8745.24
596.25	8637.92
596.45	8752.61
596.65	8792.34
596.84	8848.04
597.04	9026.22
597.24	9000.82
597.44	8975.84
597.64	9106.50
597.84	9216.27
598.04	9156.88
598.24	9308.43
598.44	9259.69
598.64	9456.70
598.84	9495.20
599.04	9527.56
599.24	9579.99
599.44	9682.80
599.64	9639.38
599.84	9818.37
600.04	9889.64
600.24	9885.14
600.44	9972.38
600.64	9953.95
600.84	10131.30
601.04	10095.67
601.23	10162.43
601.43	10187.83
601.63	10291.86
601.83	10304.56
602.03	10383.20
602.23	10377.47
602.43	10612.98
602.63	10620.36
602.83	10635.10
603.03	10700.23
603.23	10733.40
603.43	10904.61
603.63	10882.91
603.83	11003.33
604.03	10970.56
604.22	11064.36
604.42	11255.23
604.62	11151.60
604.82	11122.11
605.02	11260.96
605.22	11371.14
605.42	11256.46
605.62	11562.01
605.82	11536.62
606.02	11483.37
606.22	11636.15
606.41	11636.97
606.61	11669.74
606.81	11830.30
607.01	11856.10
607.21	11976.52
607.41	11947.44
607.61	11991.27
607.81	12016.66
608.01	12092.44
608.21	12243.99
608.40	12159.20
608.60	12257.09
608.80	12399.22
609.00	12354.99
609.20	12330.41
609.40	12480.32
609.60	12498.34
609.80	12571.25
610.00	12783.01
610.19	12616.31
610.39	12734.27
610.59	12674.06
610.79	12660.95
610.99	12858.38
611.19	12852.23
611.39	12854.69
611.59	12999.69
611.78	12925.55
611.98	12924.73
612.18	13143.86
612.38	13126.25
612.58	13218.00
612.78	13191.79
612.98	13292.96
613.17	13392.49
613.37	13353.99
613.57	13451.47
613.77	13515.36
613.97	13549.77
614.17	13628.00
614.37	13600.15
614.56	13549.77
614.76	13653.81
614.96	13685.76
615.16	13720.98
615.36	13843.86
615.56	13905.71
615.76	13905.71
615.95	13934.38
616.15	13998.69
616.35	14031.45
616.55	14058.49
616.75	13967.15
616.95	14057.26
617.14	14133.03
617.34	14172.35
617.54	14094.12
617.74	14128.12
617.94	14083.06
618.14	14283.76
618.33	14168.67
618.53	14304.65
618.73	14319.81
618.93	14315.30
619.13	14318.58
619.33	14319.81
619.52	14340.29
619.72	14307.93
619.92	14373.05
620.12	14409.92
620.32	14314.89
620.51	14392.31
620.71	14523.78
620.91	14311.21
621.11	14377.15
621.31	14520.92
621.50	14456.20
621.70	14478.32
621.90	14598.74
622.10	14484.87
622.30	14524.60
622.49	14627.82
622.69	14551.64
622.89	14517.23
623.09	14635.19
623.29	14754.80
623.48	14577.03
623.68	14611.85
623.88	14619.63
624.08	14583.59
624.28	14460.71
624.47	14513.14
624.67	14468.08
624.87	14620.04
625.07	14497.16
625.26	14454.15
625.46	14482.42
625.66	14573.35
625.86	14368.14
626.06	14528.29
626.25	14547.13
626.45	14579.08
626.65	14446.37
626.85	14520.92
627.04	14417.70
627.24	14363.63
627.44	14392.71
627.64	14482.42
627.83	14362.40
628.03	14436.13
628.23	14366.09
628.43	14347.66
628.63	14331.28
628.82	14211.67
629.02	14277.62
629.22	14323.08
629.42	14274.34
629.61	14176.04
629.81	14271.48
630.01	14164.57
630.21	14091.66
630.40	14230.93
630.60	14026.95
630.80	14009.34
630.99	14065.45
631.19	13835.67
631.39	13930.69
631.59	13939.70
631.78	13829.52
631.98	13879.08
632.18	13833.62
632.38	13797.98
632.57	13627.59
632.77	13709.51
632.97	13640.70
633.17	13589.09
633.36	13528.06
633.56	13496.11
633.76	13470.72
633.95	13406.82
634.15	13374.46
634.35	13352.35
634.55	13285.99
634.74	13136.49
634.94	13205.71
635.14	13170.90
635.33	13097.99
635.53	13012.79
635.73	13117.65
635.93	13014.02
636.12	12927.60
636.32	12846.09
636.52	12817.01
636.71	12771.54
636.91	12609.75
637.11	12611.80
637.30	12710.10
637.50	12579.44
637.70	12463.12
637.90	12576.17
638.09	12435.27
638.29	12330.41
638.49	12301.74
638.68	12248.08
638.88	12288.22
639.08	12103.50
639.27	12058.44
639.47	12092.85
639.67	11981.85
639.86	11904.43
640.06	11940.48
640.26	11788.11
640.45	11753.29
640.65	11695.95
640.85	11573.89
641.04	11480.50
641.24	11484.19
641.44	11430.53
641.63	11292.91
641.83	11293.32
642.03	11176.58
642.22	11101.22
642.42	11112.69
642.62	11045.51
642.81	10988.17
643.01	10919.77
643.21	10825.15
643.40	10824.74
643.60	10676.06
643.80	10641.25
643.99	10513.45
644.19	10490.52
644.39	10441.77
644.58	10288.18
644.78	10236.98
644.98	10215.68
645.17	10138.26
645.37	10166.94
645.56	10060.03
645.76	9962.96
645.96	9951.08
646.15	9785.60
646.35	9690.58
646.55	9821.65
646.74	9683.21
646.94	9571.39
647.13	9528.38
647.33	9452.60
647.53	9325.63
647.72	9249.86
647.92	9246.17
648.12	9168.35
648.31	9107.32
648.51	9045.88
648.70	8886.14
648.90	8777.59
649.10	8819.78
649.29	8774.73
649.49	8742.78
649.69	8781.28
649.88	8643.25
650.08	8413.47
650.27	8494.16
650.47	8356.53
650.67	8413.87
650.86	8365.54
651.06	8071.45
651.25	8070.64
651.45	8079.24
651.65	8016.57
651.84	7897.79
652.04	7770.81
652.23	7756.07
652.43	7747.06
652.63	7621.31
652.82	7613.94
653.02	7545.54
653.21	7437.40
653.41	7330.09
653.60	7325.17
653.80	7205.16
654.00	7232.61
654.19	7031.09
654.39	7067.95
654.58	7024.12
654.78	6925.41
654.97	6929.51
655.17	6865.20
655.37	6781.64
655.56	6687.03
655.76	6593.23
655.95	6596.51
656.15	6503.12
656.34	6419.97
656.54	6456.02
656.74	6360.17
656.93	6340.92
657.13	6159.88
657.32	6170.53
657.52	6098.03
657.71	6021.85
657.91	6042.74
658.10	5857.60
658.30	5870.30
658.50	5800.67
658.69	5817.87
658.89	5682.70
659.08	5685.57
659.28	5613.07
659.47	5453.33
659.67	5380.83
659.86	5430.80
660.06	5358.31
660.25	5375.10
660.45	5235.43
660.64	5208.80
660.84	5114.19
661.04	5013.02
661.23	4981.07
661.43	4949.12
661.62	4885.22
661.82	4845.90
662.01	4832.39
662.21	4719.75
662.40	4683.70
662.60	4679.61
662.79	4638.24
662.99	4553.45
663.18	4574.34
663.38	4537.89
663.57	4430.17
663.77	4360.13
663.96	4333.50
664.16	4337.60
664.35	4279.44
664.55	4198.34
664.74	4235.20
664.94	4076.69
665.13	4068.49
665.33	4019.75
665.52	3962.00
665.72	3935.38
665.91	3837.07
666.11	3869.43
666.30	3788.74
666.50	3734.68
666.69	3685.52
666.89	3697.40
667.08	3601.97
667.28	3624.50
667.47	3535.61
667.67	3533.57
667.86	3496.29
668.06	3443.45
668.25	3389.80
668.45	3417.24
668.64	3303.37
668.84	3284.94
669.03	3228.01
669.22	3190.74
669.42	3200.57
669.61	3175.58
669.81	3060.48
670.00	3009.69
670.20	3048.20
670.39	2997.00
670.59	2951.94
670.78	2953.58
670.98	2897.88
671.17	2830.29
671.37	2772.54
671.56	2841.35
671.75	2661.95
671.95	2681.61
672.14	2613.62
672.34	2553.82
672.53	2628.77
672.73	2603.79
672.92	2546.44
673.12	2532.11
673.31	2561.60
673.50	2522.28
673.70	2452.65
673.89	2402.68
674.09	2370.73
674.28	2303.15
674.48	2337.96
674.67	2288.40
674.86	2301.10
675.06	2246.21
675.25	2206.89
675.45	2253.18
675.64	2177.81
675.84	2079.51
676.03	2148.32
676.22	2064.35
676.42	2112.27
676.61	2104.08
676.81	2014.79
677.00	2037.73
677.20	1994.72
677.39	1975.88
677.58	1939.84
677.78	1890.68
677.97	1871.02
678.17	1872.66
678.36	1819.01
678.55	1795.25
678.75	1795.25
678.94	1815.32
679.14	1718.66
679.33	1729.71
679.52	1696.13
679.72	1708.83
679.91	1694.08
680.11	1644.52
680.30	1654.76
680.49	1748.56
680.69	1657.63
680.88	1599.05
681.07	1547.45
681.27	1535.98
681.46	1501.98
681.66	1492.15
681.85	1480.68
682.04	1467.57
682.24	1469.21
682.43	1445.87
682.62	1414.74
682.82	1381.56
683.01	1356.98
683.21	1370.91
683.40	1404.91
683.59	1316.43
683.79	1276.70
683.98	1288.58
684.17	1336.09
684.37	1233.29
684.56	1271.38
684.75	1276.29
684.95	1280.80
685.14	1211.17
685.34	1207.48
685.53	1222.64
685.72	1162.02
685.92	1178.40
686.11	1113.28
686.30	1094.02
686.50	1096.89
686.69	1117.37
686.88	1068.22
687.08	1139.08
687.27	1053.07
687.46	1011.70
687.66	991.22
687.85	1035.45
688.04	988.35
688.24	1019.48
688.43	1092.80
688.62	978.93
688.82	974.42
689.01	982.62
689.20	962.55
689.40	909.71
689.59	932.24
689.78	910.94
689.98	910.94
690.17	874.48
690.36	856.46
690.56	856.05
690.75	889.64
690.94	896.19
691.13	825.74
691.33	866.70
691.52	820.01
691.71	809.77
691.91	817.14
692.10	791.34
692.29	813.45
692.49	818.78
692.68	820.01
692.87	824.10
693.06	760.62
693.26	770.04
693.45	719.66
693.64	774.95
693.84	745.46
694.03	692.62
694.22	754.06
694.42	721.29
694.61	685.66
694.80	739.73
694.99	733.17
695.19	703.27
695.38	702.04
695.57	636.10
695.76	702.04
695.96	636.51
696.15	663.95
696.34	656.58
696.54	642.24
696.73	656.99
696.92	629.14
697.11	602.51
697.31	624.63
697.50	648.80
697.69	570.15
697.88	630.36
698.08	608.66
698.27	575.07
698.46	629.55
698.65	550.49
698.85	582.85
699.04	614.39
699.23	546.40
699.42	568.93
699.62	565.65
699.81	476.77
700.00	514.86
700.19	559.10
700.39	568.93
700.58	451.37
700.77	523.05
700.96	489.46
701.16	534.93
701.35	539.84
701.54	422.70
701.73	527.15
701.92	550.49
702.12	517.32
702.31	511.58
702.50	462.02
702.69	451.78
702.89	468.58
703.08	539.84
703.27	448.51
703.46	491.10
703.65	496.84
703.85	441.13
704.04	458.34
704.23	474.31
704.42	462.02
704.62	454.65
704.81	425.16
705.00	431.30
705.19	435.81
705.38	400.17
705.58	410.41
705.77	376.83
705.96	434.58
706.15	369.86
706.34	370.27
706.54	434.99
706.73	400.17
706.92	436.22
707.11	406.73
707.30	350.20
707.50	396.49
707.69	399.35
707.88	428.03
708.07	377.24
708.26	418.60
708.45	348.56
708.65	343.65
708.84	393.21
709.03	349.79
709.22	381.74
709.41	354.30
709.60	323.17
709.80	333.41
709.99	342.01
710.18	404.68
710.37	352.66
710.56	361.26
710.75	372.73
710.95	274.43
711.14	334.23
711.33	312.11
711.52	364.95
711.71	326.04
711.90	283.85
712.10	339.14
712.29	303.92
712.48	326.45
712.67	364.95
712.86	279.34
713.05	334.64
713.24	292.86
713.44	305.15
713.63	330.54
713.82	320.71
714.01	370.27
714.20	337.51
714.39	301.05
714.58	253.13
714.78	277.29
714.97	258.45
715.16	299.82
715.35	311.29
715.54	282.62
715.73	250.26
715.92	257.22
716.11	256.82
716.31	298.18
716.50	254.36
716.69	305.15
716.88	268.28
717.07	262.96
717.26	305.97
717.45	315.80
717.64	254.36
717.83	255.18
718.03	257.63
718.22	298.59
718.41	322.35
718.60	254.36
718.79	255.59
718.98	276.07
719.17	265.83
719.36	292.45
719.55	268.28
719.74	232.24
719.94	263.78
720.13	260.91
720.32	253.95
720.51	265.83
720.70	235.52
720.89	277.29
721.08	266.24
721.27	269.92
721.46	237.97
721.65	256.41
721.84	226.51
722.03	292.04
722.22	224.87
722.42	212.17
722.61	267.87
722.80	236.34
722.99	211.76
723.18	199.47
723.37	213.81
723.56	286.31
723.75	244.94
723.94	176.53
724.13	225.69
724.32	230.60
724.51	256.82
724.70	265.42
724.89	291.22
725.08	278.52
725.27	243.30
725.47	265.42
725.66	237.15
725.85	211.35
726.04	231.01
726.23	222.41
726.42	229.78
726.61	221.18
726.80	227.73
726.99	186.37
727.18	262.55
727.37	269.51
727.56	255.59
727.75	238.38
727.94	212.58
728.13	258.86
728.32	205.21
728.51	222.82
728.70	224.05
728.89	183.09
729.08	238.38
729.27	185.55
729.46	208.07
729.65	129.84
729.84	189.23
730.03	210.53
730.22	214.22
730.41	188.00
730.60	205.62
730.79	337.51
730.98	193.33
731.17	208.89
731.36	220.36
731.55	218.31
731.74	203.98
731.93	167.11
732.12	225.28
732.31	212.17
732.50	208.07
732.69	164.66
732.88	163.02
733.07	235.93
733.26	161.38
733.45	198.65
733.64	203.57
733.83	188.00
734.02	202.75
734.21	171.21
734.40	165.48
734.59	172.85
734.78	203.98
734.97	197.01
735.16	236.34
735.35	213.81
735.54	192.51
735.73	197.01
735.92	198.65
736.11	232.65
736.30	233.47
736.49	192.51
736.68	147.04
736.87	166.70
737.06	178.99
737.25	196.61
737.44	206.03
737.63	198.24
737.82	183.91
738.00	181.45
738.19	196.61
738.38	223.64
738.57	205.21
738.76	230.60
738.95	185.96
739.14	172.44
739.33	161.79
739.52	187.59
739.71	184.73
739.90	198.65
740.09	217.08
740.28	124.11
740.47	193.33
740.66	193.74
740.85	161.79
741.03	143.77
741.22	209.71
741.41	197.83
741.60	192.51
741.79	153.19
741.98	157.28
742.17	162.20
742.36	178.58
742.55	152.78
742.74	149.91
742.93	167.11
743.12	246.99
743.30	129.84
743.49	206.84
743.68	199.06
743.87	172.85
744.06	114.28
744.25	157.69
744.44	210.53
744.63	154.42
744.82	233.47
745.01	165.07
745.19	153.60
745.38	179.81
745.57	191.69
745.76	159.33
745.95	130.25
746.14	151.96
746.33	186.37
746.52	167.52
746.71	150.73
746.89	165.48
747.08	206.84
747.27	205.62
747.46	123.29
747.65	131.89
747.84	147.45
748.03	127.38
748.22	149.09
748.40	198.65
748.59	174.49
748.78	169.57
748.97	105.68
749.16	170.80
749.35	151.55
749.54	156.46
749.72	138.44
749.91	134.35
750.10	141.72
750.29	133.12
750.48	212.17
750.67	192.10
750.86	147.86
751.04	151.96
751.23	135.99
751.42	122.88
751.61	127.38
751.80	166.70
751.99	108.54
752.18	166.30
752.36	187.18
752.55	207.25
752.74	147.86
752.93	142.54
753.12	183.91
753.31	149.91
753.49	145.00
753.68	166.70
753.87	160.97
754.06	165.89
754.25	160.56
754.43	182.68
754.62	150.73
754.81	113.87
755.00	139.26
755.19	174.49
755.38	161.38
755.56	158.10
755.75	148.27
755.94	140.90
756.13	128.61
756.32	190.87
756.50	145.82
756.69	137.62
756.88	122.06
757.07	174.90
757.26	151.14
757.44	147.04
757.63	169.16
757.82	165.48
758.01	155.24
758.20	139.26
758.38	137.21
758.57	176.13
758.76	170.80
758.95	143.36
759.13	144.59
759.32	140.08
759.51	182.27
759.70	134.35
759.89	134.76
760.07	160.97
760.26	176.13
760.45	120.42
760.64	166.70
760.82	174.08
761.01	151.96
761.20	129.84
761.39	170.39
761.57	152.37
761.76	157.28
761.95	158.10
762.14	152.37
762.33	121.65
762.51	114.28
762.70	173.67
762.89	118.78
763.08	163.84
763.26	154.01
763.45	109.77
763.64	168.75
763.83	106.49
764.01	110.18
764.20	94.62
764.39	188.82
764.57	149.50
764.76	133.12
764.95	160.97
765.14	166.30
765.32	126.56
765.51	95.03
765.70	137.21
765.89	108.95
766.07	102.40
766.26	127.38
766.45	138.44
766.63	156.46
766.82	122.47
767.01	138.03
767.20	165.07
767.38	153.60
767.57	109.77
767.76	216.68
767.94	125.34
768.13	122.88
768.32	113.46
768.51	142.54
768.69	125.34
768.88	146.63
769.07	109.36
769.25	124.11
769.44	114.69
769.63	179.81
769.82	154.83
770.00	154.42
770.19	108.95
770.38	87.24
770.56	103.63
770.75	154.01
770.94	138.85
771.12	171.62
771.31	164.25
771.50	135.99
771.68	124.11
771.87	106.08
772.06	104.04
772.24	147.45
772.43	97.48
772.62	107.31
772.80	151.14
772.99	83.97
773.18	90.93
773.36	173.67
773.55	147.86
773.74	108.54
773.92	136.80
774.11	181.45
774.30	94.62
774.48	112.64
774.67	131.07
774.86	153.19
775.04	97.07
775.23	108.13
775.42	120.01
775.60	162.20
775.79	115.92
775.98	144.18
776.16	125.75
776.35	151.14
776.53	136.80
776.72	147.04
776.91	98.30
777.09	124.52
777.28	96.25
777.47	136.80
777.65	127.38
777.84	124.11
778.03	163.43
778.21	80.28
778.40	136.39
778.58	117.96
778.77	141.31
778.96	127.79
779.14	90.93
779.33	141.31
779.52	79.46
779.70	93.80
779.89	99.12
780.07	156.06
780.26	131.48
780.45	123.70
780.63	161.79
780.82	144.18
781.00	111.00
781.19	97.89
781.38	108.13
781.56	117.96
781.75	104.04
781.93	102.81
782.12	135.58
782.31	136.39
782.49	113.05
782.68	131.07
782.86	138.44
783.05	142.13
783.23	101.99
783.42	140.49
783.61	125.34
783.79	117.96
783.98	94.62
784.16	113.87
784.35	57.75
784.54	100.35
784.72	74.55
784.91	124.11
785.09	126.56
785.28	126.15
785.46	82.74
785.65	116.73
785.83	53.66
786.02	121.24
786.21	78.23
786.39	85.61
786.58	120.42
786.76	152.78
786.95	112.64
787.13	122.47
787.32	78.23
787.50	122.06
787.69	117.14
787.88	139.26
788.06	99.53
788.25	119.19
788.43	145.41
788.62	127.79
788.80	45.06
788.99	108.13
789.17	115.51
789.36	74.55
789.54	135.17
789.73	134.76
789.91	136.39
790.10	52.84
790.29	159.33
790.47	105.27
790.66	74.96
790.84	34.00
791.03	89.70
791.21	101.17
791.40	136.80
791.58	130.66
791.77	78.64
791.95	110.59
792.14	100.35
792.32	115.92
792.51	123.70
792.69	126.15
792.88	129.43
793.06	75.77
793.25	127.38
793.43	101.99
793.62	101.58
793.80	101.99
793.99	156.06
794.17	81.51
794.36	79.87
794.54	126.56
794.73	67.58
794.91	107.31
795.10	99.94
795.28	128.20
795.47	93.39
795.65	89.29
795.84	99.53
796.02	43.83
796.20	112.64
796.39	121.24
796.57	83.97
796.76	129.02
796.94	106.49
797.13	130.25
797.31	90.93
797.50	76.18
797.68	74.96
797.87	152.37
798.05	96.25
798.24	28.67
798.42	48.33
798.60	111.41
798.79	113.05
798.97	158.51
799.16	99.53
799.34	138.44
799.53	73.32
799.71	105.27
799.90	132.71
800.08	88.88
800.26	46.28
800.45	149.91
800.63	102.81
800.82	70.45
801.00	106.49
801.19	100.76
801.37	117.14
801.56	24.99
801.74	82.74
801.92	32.77
802.11	115.51
802.29	66.35
802.48	77.00
802.66	60.21
802.84	22.94
803.03	77.00
803.21	122.88
803.40	43.01
803.58	101.17
803.77	114.28
803.95	93.80
804.13	80.69
804.32	92.16
804.50	162.20
804.69	47.92
804.87	124.93
805.05	74.14
805.24	84.38
805.42	79.46
805.61	88.88
805.79	131.07
805.97	78.23
806.16	81.92
806.34	0.82
806.53	153.19
806.71	89.29
806.89	88.47
807.08	116.32
807.26	45.06
807.44	112.64
807.63	113.46
807.81	72.50
808.00	104.04
808.18	77.82
808.36	77.00
808.55	91.34
808.73	101.99
808.91	111.41
809.10	111.82
809.28	63.49
809.46	85.61
809.65	88.88
809.83	52.84
810.02	81.10
810.20	87.24
810.38	53.25
810.57	110.59
810.75	99.53
810.93	97.48
811.12	104.04
811.30	41.78
811.48	69.22
811.67	65.53
811.85	37.68
812.03	97.07
812.22	72.50
812.40	55.70
812.58	57.34
812.77	77.41
812.95	69.22
813.13	78.23
813.32	80.28
813.50	113.46
813.68	114.69
813.87	100.76
814.05	67.17
814.23	86.83
814.42	72.09
814.60	83.56
814.78	73.73
814.97	67.99
815.15	75.37
815.33	105.27
815.51	108.54
815.70	74.55
815.88	59.80
816.06	83.97
816.25	101.17
816.43	60.21
816.61	30.31
816.80	85.20
816.98	87.24
817.16	108.54
817.34	56.52
817.53	92.98
817.71	82.74
817.89	102.81
818.08	67.17
818.26	58.16
818.44	52.02
818.62	17.20
818.81	92.57
818.99	79.05
819.17	50.38
819.36	82.74
819.54	78.64
819.72	102.40
819.90	88.06
820.09	45.06
820.27	111.00
820.45	129.02
820.63	61.85
820.82	99.53
821.00	95.44
821.18	114.28
821.36	67.99
821.55	89.70
821.73	78.23
821.91	59.80
822.10	61.44
822.28	27.85
822.46	95.44
822.64	49.56
822.82	57.75
823.01	38.91
823.19	85.61
823.37	45.06
823.55	75.77
823.74	121.24
823.92	92.98
824.10	67.58
824.28	86.83
824.47	80.69
824.65	97.89
824.83	67.99
825.01	108.95
825.20	79.87
825.38	83.97
825.56	68.81
825.74	63.08
825.92	61.03
826.11	50.79
826.29	47.10
826.47	63.08
826.65	70.45
826.83	57.34
827.02	83.97
827.20	86.83
827.38	110.18
827.56	21.30
827.74	64.31
827.93	67.58
828.11	87.24
828.29	18.43
828.47	50.79
828.65	32.36
828.84	75.37
829.02	64.72
829.20	77.00
829.38	73.32
829.56	97.48
829.75	83.97
829.93	61.44
830.11	31.13
830.29	65.13
830.47	77.41
830.65	52.84
830.84	100.35
831.02	64.31
831.20	28.26
831.38	-0.00
831.56	42.60
831.74	67.17
831.93	35.63
832.11	67.17
832.29	40.14
832.47	116.32
832.65	77.82
832.83	95.84
833.02	31.54
833.20	56.11
833.38	21.30
833.56	88.47
833.74	103.22
833.92	66.76
834.10	59.39
834.29	17.20
834.47	93.80
834.65	16.38
834.83	24.99
835.01	38.09
835.19	68.81
835.37	39.32
835.56	116.32
835.74	40.96
835.92	71.27
836.10	63.08
836.28	30.31
836.46	53.66
836.64	67.99
836.82	2.05
837.01	90.52
837.19	101.17
837.37	96.66
837.55	73.32
837.73	70.86
837.91	86.01
838.09	82.33
838.27	38.09
838.45	49.56
838.64	41.37
838.82	115.10
839.00	67.17
839.18	132.30
839.36	29.90
839.54	-2.05
839.72	81.51
839.90	-15.15
840.08	75.77
840.26	105.27
840.45	2.46
840.63	39.73
840.81	31.13
840.99	36.45
841.17	101.58
841.35	61.85
841.53	38.91
841.71	40.14
841.89	36.45
842.07	51.61
842.25	43.83
842.43	49.56
842.61	34.82
842.79	91.34
842.98	14.34
843.16	28.67
843.34	62.67
843.52	87.65
843.70	54.07
843.88	5.32
844.06	30.72
844.24	38.50
844.42	33.18
844.60	-24.99
844.78	72.09
844.96	63.08
845.14	32.36
845.32	84.38
845.50	48.74
845.68	78.64
845.86	50.38
846.04	57.34
846.22	74.55
846.40	26.62
846.58	91.75
846.77	52.84
846.95	31.54
847.13	40.96
847.31	70.45
847.49	61.44
847.67	50.79
847.85	66.76
848.03	37.27
848.21	92.98
848.39	65.94
848.57	80.28
848.75	84.79
848.93	78.23
849.11	56.52
849.29	9.42
849.47	47.92
849.65	4.10
849.83	58.57
850.01	55.30
850.19	80.28
850.37	2.05
850.55	40.14
850.73	45.87
850.91	111.41
851.09	54.07
851.27	54.07
851.45	28.67
851.63	91.34
851.81	47.92
851.99	74.96
852.17	6.55
852.35	71.27
852.53	79.05
852.71	22.53
852.89	63.49
853.07	29.90
853.25	101.99
853.42	16.38
853.60	4.51
853.78	27.85
853.96	-9.83
854.14	56.11
854.32	-10.24
854.50	91.34
854.68	64.72
854.86	-15.15
855.04	68.40
855.22	52.43
855.40	61.03
855.58	36.86
855.76	6.55
855.94	17.20
856.12	41.37
856.30	36.86
856.48	43.01
856.66	56.93
856.84	32.36
857.02	36.45
857.19	57.75
857.37	65.54
857.55	7.78
857.73	35.63
857.91	25.80
858.09	52.84
858.27	61.03
858.45	18.84
858.63	59.39
858.81	104.04
858.99	113.87
859.17	47.10
859.35	72.91
859.52	58.98
859.70	38.91
859.88	35.23
860.06	88.47
860.24	40.14
860.42	13.52
860.60	41.78
860.78	-42.19
860.96	41.37
861.14	43.83
861.31	88.06
861.49	67.99
861.67	109.77
861.85	49.15
862.03	15.15
862.21	61.44
862.39	17.20
862.57	45.87
862.75	62.67
862.92	49.15
863.10	34.00
863.28	66.76
863.46	4.51
863.64	78.23
863.82	35.63
864.00	24.17
864.18	42.60
864.35	26.62
864.53	52.43
864.71	4.92
864.89	60.21
865.07	34.41
865.25	31.95
865.43	-4.51
865.61	94.21
865.78	61.03
865.96	65.94
866.14	45.87
866.32	13.93
866.50	31.54
866.68	24.58
866.85	16.79
867.03	34.41
867.21	-1.64
867.39	51.20
867.57	41.78
867.75	46.69
867.93	11.88
868.10	45.46
868.28	29.49
868.46	34.41
868.64	27.44
868.82	60.21
868.99	43.83
869.17	41.37
869.35	45.87
869.53	40.96
869.71	18.84
869.89	11.47
870.06	24.58
870.24	41.78
870.42	54.89
870.60	22.53
870.78	49.15
870.95	56.93
871.13	58.98
871.31	67.58
871.49	68.81
871.67	15.56
871.84	4.92
872.02	23.76
872.20	36.45
872.38	31.54
872.56	41.37
872.73	15.15
872.91	23.35
873.09	47.51
873.27	63.90
873.45	24.99
873.62	74.96
873.80	44.65
873.98	61.03
874.16	100.35
874.33	-4.10
874.51	88.06
874.69	34.41
874.87	14.75
875.05	-72.50
875.22	52.84
875.40	11.06
875.58	63.90
875.76	21.71
875.93	-2.46
876.11	8.60
876.29	67.17
876.47	34.82
876.64	47.51
876.82	49.56
877.00	58.16
877.18	59.39
877.35	23.76
877.53	23.76
877.71	72.50
877.89	46.69
878.06	-4.10
878.24	52.02
878.42	29.90
878.60	64.31
878.77	43.83
878.95	5.32
879.13	32.77
879.30	36.45
879.48	11.88
879.66	-6.55
879.84	22.94
880.01	81.51
880.19	42.19
880.37	15.56
880.55	42.19
880.72	40.14
880.90	-20.48
881.08	37.27
881.25	55.30
881.43	-2.46
881.61	95.84
881.78	15.97
881.96	-5.73
882.14	33.59
882.32	40.55
882.49	0.00
882.67	26.62
882.85	38.91
883.02	38.50
883.20	52.43
883.38	-6.55
883.55	23.35
883.73	56.93
883.91	28.26
884.08	12.70
884.26	25.39
884.44	27.44
884.62	5.32
884.79	37.27
884.97	-9.01
885.15	15.56
885.32	49.15
885.50	15.15
885.68	46.28
885.85	22.94
886.03	-0.82
886.21	18.43
886.38	55.30
886.56	9.42
886.74	88.88
886.91	27.03
887.09	75.77
887.26	76.18
887.44	74.14
887.62	58.57
887.79	53.66
887.97	44.24
888.15	65.94
888.32	27.85
888.50	33.59
888.68	66.35
888.85	26.21
889.03	14.75
889.21	46.28
889.38	17.20
889.56	70.86
889.73	10.65
889.91	-24.58
890.09	31.95
890.26	-9.83
890.44	15.97
890.62	14.75
890.79	2.87
890.97	22.94
891.14	22.53
891.32	88.06
891.50	56.93
891.67	7.37
891.85	77.00
892.02	47.92
892.20	35.23
892.38	92.98
892.55	-17.61
892.73	40.55
892.90	32.77
893.08	30.31
893.26	-20.89
893.43	42.60
893.61	84.38
893.78	27.85
893.96	22.53
894.14	-6.14
894.31	-7.37
894.49	-18.43
894.66	25.80
894.84	32.77
895.01	2.87
895.19	-21.30
895.37	34.82
895.54	66.76
895.72	49.15
895.89	15.56
896.07	-6.96
896.24	35.23
896.42	18.02
896.60	59.39
896.77	6.96
896.95	16.79
897.12	-28.26
897.30	-11.47
897.47	14.75
897.65	14.34
897.82	19.25
898.00	22.53
898.18	-24.17
898.35	25.80
898.53	9.83
898.70	25.39
898.88	3.69
899.05	40.96
899.23	15.56
899.40	-0.82
899.58	-7.78
899.75	15.97
899.93	14.34
900.10	13.93
900.28	31.54
900.46	47.10
900.63	43.83
900.81	40.14
900.98	11.88
901.16	11.88
901.33	30.31
901.51	22.94
901.68	27.85
901.86	84.79
902.03	2.46
902.21	27.44
902.38	14.75
902.56	58.16
902.73	-9.83
902.91	-19.66
903.08	29.90
903.26	20.89
903.43	27.03
903.61	-14.75
903.78	-11.47
903.96	58.16
904.13	24.99
904.31	13.11
904.48	16.79
904.66	-0.00
904.83	-10.24
905.01	67.58
905.18	-13.52
905.36	15.97
905.53	24.99
905.70	31.95
905.88	7.37
906.05	-1.23
906.23	25.80
906.40	21.30
906.58	-8.60
906.75	43.42
906.93	39.32
907.10	26.62
907.28	-12.29
907.45	88.47
907.63	11.47
907.80	-16.79
907.97	29.90
908.15	10.24
908.32	15.56
908.50	22.12
908.67	44.24
908.85	18.84
909.02	55.30
909.20	72.09
909.37	34.41
909.54	26.21
909.72	4.92
909.89	12.29
910.07	26.62
910.24	27.85
910.42	50.38
910.59	-7.37
910.76	5.73
910.94	0.41
911.11	29.08
911.29	-26.62
911.46	-1.23
911.64	-0.82
911.81	7.78
911.98	-21.71
912.16	38.91
912.33	-39.32
912.51	6.96
912.68	21.71
912.85	-34.00
913.03	24.58
913.20	28.26
913.38	-29.08
913.55	79.87
913.72	-6.55
913.90	-9.01
914.07	13.93
914.25	-6.96
914.42	62.26
914.59	7.37
914.77	28.67
914.94	-10.65
915.11	49.97
915.29	46.69
915.46	6.14
915.64	56.52
915.81	14.34
915.98	31.54
916.16	24.58
916.33	32.36
916.50	33.18
916.68	42.19
916.85	13.11
917.03	42.19
917.20	19.66
917.37	-17.20
917.55	5.32
917.72	-20.48
917.89	37.27
918.07	8.19
918.24	-11.47
918.41	26.21
918.59	34.00
918.76	17.20
918.93	23.35
919.11	56.11
919.28	-9.42
919.45	20.07
919.63	-15.56
919.80	-23.35
919.97	28.67
920.15	-8.19
920.32	40.55
920.49	23.35
920.67	13.52
920.84	22.94
921.01	-31.13
921.19	32.77
921.36	-0.82
921.53	34.41
921.71	33.18
921.88	-34.41
922.05	-9.01
922.23	21.71
922.40	38.09
922.57	13.93
922.74	10.24
922.92	1.23
923.09	53.66
923.26	24.99
923.44	0.00
923.61	-159.74
923.78	-3.28
923.96	4.51
924.13	-1.23
924.30	-35.23
924.47	27.03
924.65	-9.01
924.82	13.52
924.99	37.68
925.17	48.74
925.34	47.51
925.51	59.39
925.68	-27.03
925.86	68.40
926.03	42.19
926.20	-4.10
926.37	2.46
926.55	14.34
926.72	-22.12
926.89	13.93
927.06	13.52
927.24	0.41
927.41	27.85
927.58	15.97
927.75	2.87
927.93	10.24
928.10	57.75
928.27	18.84
928.44	-21.30
928.62	20.48
928.79	2.05
928.96	16.79
929.13	6.96
929.31	9.42
929.48	5.73
929.65	-8.60
929.82	12.70
930.00	56.93
930.17	-22.12
930.34	-38.50
930.51	12.70
930.69	28.26
930.86	38.50
931.03	5.73
931.20	15.56
931.37	50.38
931.55	17.20
931.72	27.03
931.89	54.07
932.06	11.47
932.23	15.15
932.41	40.14
932.58	12.29
932.75	14.75
932.92	10.65
933.09	-20.89
933.27	16.38
933.44	4.10
933.61	18.02
933.78	-38.91
933.95	3.28
934.13	27.03
934.30	20.89
934.47	-4.51
934.64	14.34
934.81	11.88
934.98	45.87
935.16	-13.11
935.33	20.89
935.50	3.69
935.67	-15.56
935.84	82.33
936.02	31.95
936.19	27.03
936.36	17.61
936.53	-7.37
936.70	54.89
936.87	13.93
937.05	13.11
937.22	-1.64
937.39	-17.20
937.56	45.06
937.73	-28.67
937.90	30.31
938.07	0.82
938.25	18.43
938.42	30.31
938.59	-9.83
938.76	-15.15
938.93	18.84
939.10	32.36
939.27	-13.52
939.45	41.37
939.62	-0.82
939.79	22.53
939.96	29.08
940.13	-6.96
940.30	2.46
940.47	6.14
940.64	5.73
940.82	41.78
940.99	14.34
941.16	-17.61
941.33	-9.42
941.50	-48.33
941.67	-15.15
941.84	21.30
942.01	24.58
942.18	20.07
942.36	38.09
942.53	55.30
942.70	31.54
942.87	61.85
943.04	9.83
943.21	26.62
943.38	-11.06
943.55	52.43
943.72	-199.47
943.89	30.72
944.06	21.71
944.24	22.53
944.41	19.25
944.58	66.76
944.75	-21.71
944.92	-22.12
945.09	16.79
945.26	-9.42
945.43	24.99
945.60	16.38
945.77	3.69
945.94	31.95
946.11	-36.86
946.28	-4.10
946.45	11.88
946.63	-27.85
946.80	-43.42
946.97	31.54
947.14	14.34
947.31	24.99
947.48	35.23
947.65	18.84
947.82	-9.42
947.99	68.40
948.16	0.41
948.33	42.60
948.50	26.62
948.67	43.83
948.84	40.96
949.01	27.03
949.18	-12.29
949.35	9.01
949.52	33.18
949.69	4.51
949.86	57.34
950.03	35.23
950.20	22.12
950.37	-26.62
950.54	-1.64
950.71	32.77
950.88	-61.44
951.05	21.71
951.22	27.44
951.39	16.38
951.56	-4.51
951.73	-29.08
951.90	8.60
952.07	-18.02
952.24	1.64
952.41	95.44
952.58	40.55
952.75	54.48
952.92	6.14
953.09	-36.45
953.26	31.13
953.43	30.72
953.60	-45.87
953.77	-24.17
953.94	13.11
954.11	-2.87
954.28	10.24
954.45	18.02
954.62	-34.82
954.79	7.78
954.96	2.87
955.13	18.43
955.30	2.05
955.47	61.85
955.64	-26.62
955.81	-10.24
955.98	-13.52
956.15	-42.19
956.32	-19.66
956.49	-18.02
956.66	-11.47
956.83	17.61
957.00	38.50
957.17	-27.44
957.34	29.90
957.51	-43.83
957.68	-25.80
957.84	17.20
958.01	14.34
958.18	4.92
958.35	-27.44
958.52	-47.10
958.69	33.59
958.86	61.03
959.03	-12.70
959.20	6.96
959.37	-7.37
959.54	-4.51
959.71	-4.10
959.88	34.41
960.05	23.35
960.21	13.52
960.38	-14.75
960.55	38.50
960.72	-11.88
960.89	38.09
961.06	-18.02
961.23	-23.35
961.40	18.02
961.57	17.61
961.74	-21.71
961.90	4.51
962.07	7.78
962.24	-73.73
962.41	45.06
962.58	-24.99
962.75	-8.60
962.92	13.52
963.09	23.35
963.26	16.38
963.42	-46.69
963.59	20.48
963.76	-11.88
963.93	38.50
964.10	23.76
964.27	-32.36
964.44	20.48
964.61	18.43
964.77	-0.41
964.94	-149.50
965.11	2.87
965.28	50.38
965.45	42.60
965.62	11.47
965.79	4.51
965.95	-0.82
966.12	7.37
966.29	7.37
966.46	37.68
966.63	16.38
966.80	-7.37
966.97	5.73
967.13	-2.87
967.30	-30.72
967.47	27.44
967.64	-5.32
967.81	42.60
967.98	23.76
968.14	8.19
968.31	45.46
968.48	-9.83
968.65	35.23
968.82	-2.05
968.99	49.56
969.15	3.28
969.32	54.07
969.49	45.87
969.66	39.32
969.83	25.80
969.99	-4.51
970.16	5.32
970.33	-12.70
970.50	-22.12
970.67	14.34
970.83	24.99
971.00	37.27
971.17	-2.46
971.34	-8.19
971.51	22.53
971.67	-16.38
971.84	68.40
972.01	-23.76
972.18	36.45
972.35	4.92
972.51	-8.60
972.68	34.00
972.85	8.19
973.02	-40.14
973.19	17.61
973.35	42.60
973.52	20.48
973.69	-35.63
973.86	72.50
974.02	4.51
974.19	36.86
974.36	50.79
974.53	5.32
974.69	-6.96
974.86	51.61
975.03	22.12
975.20	30.72
975.36	63.08
975.53	13.11
975.70	11.06
975.87	-5.73
976.03	-30.72
976.20	-10.24
976.37	1.23
976.54	27.44
976.70	40.14
976.87	-2.87
977.04	-36.45
977.21	10.24
977.37	-11.47
977.54	-16.79
977.71	-10.65
977.88	-17.20
978.04	81.92
978.21	8.60
978.38	-4.92
978.54	-11.88
978.71	-9.42
978.88	8.60
979.05	-40.14
979.21	19.25
979.38	0.41
979.55	24.17
979.71	-10.65
979.88	41.37
980.05	4.92
980.22	43.42
980.38	15.15
980.55	13.52
980.72	8.19
980.88	10.24
981.05	-0.41
981.22	77.00
981.38	6.55
981.55	-42.60
981.72	-9.83
981.88	-38.50
982.05	30.72
982.22	-26.21
982.38	-18.84
982.55	-7.78
982.72	24.58
982.88	10.65
983.05	7.37
983.22	29.49
983.38	3.28
983.55	27.85
983.72	9.83
983.88	-34.41
984.05	-6.14
984.22	13.93
984.38	0.00
984.55	12.70
984.72	17.20
984.88	-54.48
985.05	40.96
985.22	-45.46
985.38	-4.10
985.55	46.28
985.72	13.93
985.88	-25.80
986.05	-63.08
986.22	11.88
986.38	46.28
986.55	-4.92
986.71	-16.79
986.88	44.24
987.05	22.94
987.21	35.23
987.38	-6.55
987.55	2.87
987.71	61.44
987.88	10.24
988.04	34.00
988.21	-20.89
988.38	-21.30
988.54	-11.88
988.71	5.73
988.87	30.31
989.04	6.55
989.21	25.80
989.37	35.23
989.54	22.53
989.70	41.37
989.87	22.94
990.04	-1.64
990.20	10.65
990.37	17.61
990.53	-4.10
990.70	-4.92
990.87	14.34
991.03	9.83
991.20	16.79
991.36	23.35
991.53	3.28
991.69	3.69
991.86	-27.44
992.03	46.69
992.19	20.89
992.36	6.14
992.52	34.41
992.69	49.15
992.85	3.28
993.02	10.24
993.18	-29.49
993.35	-28.67
993.52	-18.02
993.68	-21.71
993.85	-4.10
994.01	15.15
994.18	9.01
994.34	-17.20
994.51	2.05
994.67	-9.42
994.84	-2.87
995.00	28.67
995.17	23.76
995.34	44.24
995.50	37.68
995.67	18.84
995.83	-1.64
996.00	2.05
996.16	-15.56
996.33	645.93
996.49	1.23
996.66	-4.92
996.82	-11.88
996.99	-30.72
997.15	34.82
997.32	-28.26
997.48	-14.75
997.65	58.57
997.81	-6.14
997.98	37.27
998.14	8.60
998.31	-43.83
998.47	24.99
998.64	-14.34
998.80	26.62
998.97	34.82
999.13	0.82
999.30	52.84
999.46	42.19
999.63	9.83
999.79	53.66
999.96	34.41
1000.12	-56.93
1000.29	-29.90
1000.45	-2.87
1000.62	-0.82
1000.78	-33.59
1000.95	-11.88
1001.11	-41.78
1001.28	19.25
1001.44	-32.77
1001.60	-9.01
1001.77	23.35
1001.93	48.74
1002.10	-13.52
1002.26	3.28
1002.43	36.86
1002.59	4.51
1002.76	31.95
1002.92	-0.82
1003.09	-6.55
1003.25	11.88
1003.41	33.59
1003.58	-2.46
1003.74	35.63
1003.91	29.08
1004.07	-11.88
1004.24	3.69
1004.40	-49.15
1004.56	35.23
1004.73	-23.76
1004.89	-50.38
1005.06	-0.41
1005.22	2.05
1005.39	-2.46
1005.55	30.72
1005.71	7.37
1005.88	22.53
1006.04	12.29
1006.21	9.83
1006.37	-4.10
1006.53	-17.20
1006.70	-14.75
1006.86	23.35
1007.03	-14.75
1007.19	7.78
1007.35	4.51
1007.52	-8.60
1007.68	-3.69
1007.85	14.75
1008.01	49.56
1008.17	62.26
1008.34	10.65
1008.50	-37.68
1008.67	38.91
1008.83	-35.63
1008.99	-1.64
1009.16	61.85
1009.32	9.83
1009.48	22.53
1009.65	38.09
1009.81	8.60
1009.98	-27.85
1010.14	43.01
1010.30	20.48
1010.47	28.67
1010.63	-6.14
1010.79	-18.02
1010.96	31.54
1011.12	13.11
1011.28	11.88
1011.45	17.61
1011.61	12.70
1011.78	-0.82
1011.94	-4.92
1012.10	11.47
1012.27	13.52
1012.43	34.00
1012.59	15.15
1012.76	-11.47
1012.92	37.27
1013.08	5.32
1013.25	-5.32
1013.41	-32.36
1013.57	54.07
1013.74	11.06
1013.90	49.15
1014.06	13.93
1014.22	32.36
1014.39	4.92
1014.55	-14.75
1014.71	-37.27
1014.88	26.62
1015.04	24.58
1015.20	-53.25
1015.37	-35.23
1015.53	-2.87
1015.69	38.91
1015.86	10.65
1016.02	1.23
1016.18	12.70
1016.34	-1.64
1016.51	2.46
1016.67	26.21
1016.83	-16.79
1017.00	17.20
1017.16	-40.14
1017.32	33.59
1017.48	43.42
1017.65	14.75
1017.81	0.82
1017.97	-27.03
1018.14	-4.92
1018.30	14.34
1018.46	40.55
1018.62	5.32
1018.79	6.96
1018.95	15.15
1019.11	4.10
1019.27	-16.79
1019.44	-6.14
1019.60	-9.01
1019.76	17.61
1019.92	13.52
1020.09	26.21
1020.25	-53.25
1020.41	41.78
1020.57	-36.04
1020.74	-6.14
1020.90	-29.49
1021.06	-6.55
1021.22	-0.41
1021.39	-4.92
1021.55	-18.02
1021.71	21.30
1021.87	36.86
1022.04	-17.20
1022.20	37.27
1022.36	32.77
1022.52	0.82
1022.68	-46.28
1022.85	5.32
1023.01	11.88
1023.17	4.51
1023.33	-31.95
1023.50	22.94
1023.66	0.82
1023.82	-13.11
1023.98	-7.37
1024.14	10.24
1024.31	-6.55
1024.47	20.48
1024.63	24.58
1024.79	67.99
1024.95	5.32
1025.12	22.12
1025.28	13.52
1025.44	20.07
1025.60	-40.55
1025.76	10.24
1025.93	3.69
1026.09	-57.75
1026.25	54.48
1026.41	24.58
1026.57	13.93
1026.73	-45.46
1026.90	4.92
1027.06	37.27
1027.22	-6.96
1027.38	11.47
1027.54	-36.45
1027.70	-4.10
1027.87	-2.87
1028.03	41.37
1028.19	15.97
1028.35	10.24
1028.51	-35.63
1028.67	8.19
1028.83	-27.03
1029.00	13.52
1029.16	18.43
1029.32	-17.61
1029.48	49.97
1029.64	9.83
1029.80	-6.14
1029.96	-17.20
1030.13	36.86
1030.29	-34.41
1030.45	10.24
1030.61	-8.19
1030.77	46.69
1030.93	-11.47
1031.09	31.54
1031.25	64.72
1031.42	16.38
1031.58	17.20
1031.74	-15.15
1031.90	-8.60
1032.06	21.71
1032.22	14.75
1032.38	-34.00
1032.54	-30.72
1032.70	6.55
1032.87	-3.69
1033.03	35.63
1033.19	27.85
1033.35	-6.96
1033.51	3.28
1033.67	17.20
1033.83	18.43
1033.99	9.83
1034.15	-12.29
1034.31	-27.44
1034.48	-2.46
1034.64	24.58
1034.80	-34.00
1034.96	-2.46
1035.12	-20.48
1035.28	-42.19
1035.44	-7.37
1035.60	-5.73
1035.76	22.94
1035.92	3.69
1036.08	10.24
1036.24	-30.31
1036.40	-21.71
1036.56	7.78
1036.72	-19.25
1036.89	13.93
1037.05	-6.96
1037.21	25.80
1037.37	18.84
1037.53	68.40
1037.69	44.65
1037.85	10.24
1038.01	6.14
1038.17	-3.28
>>>>>End Processed Spectral Data<<<<<
