SpectraSuite Data File
++++++++++++++++++++++++++++++++++++
Date: Mon Oct 20 21:09:45 GMT 2014
User: ammspsa
Dark Spectrum Present: Yes
Reference Spectrum Present: No
Number of Sampled Component Spectra: 1
Spectrometers: USB4E00404
Integration Time (usec): 1000000 (USB4E00404)
Spectra Averaged: 5 (USB4E00404)
Boxcar Smoothing: 0 (USB4E00404)
Correct for Electrical Dark: No (USB4E00404)
Strobe/Lamp Enabled: No (USB4E00404)
Correct for Detector Non-linearity: No (USB4E00404)
Correct for Stray Light: No (USB4E00404)
Number of Pixels in Processed Spectrum: 3648
>>>>>Begin Processed Spectral Data<<<<<
345.87	-54.48
346.08	-54.48
346.30	-54.48
346.51	-9.42
346.72	13.52
346.94	-37.68
347.15	-24.17
347.37	-27.03
347.58	1.64
347.79	6.96
348.01	14.75
348.22	29.49
348.43	129.84
348.65	4.92
348.86	9.83
349.08	-29.90
349.29	35.23
349.50	0.00
349.72	56.93
349.93	5.73
350.14	-0.82
350.36	9.83
350.57	3.28
350.78	-38.09
351.00	-11.88
351.21	7.37
351.43	47.10
351.64	-4.10
351.85	4.92
352.07	3.28
352.28	-52.84
352.49	-11.47
352.71	-6.14
352.92	12.29
353.13	47.51
353.35	-32.77
353.56	-15.97
353.77	-9.42
353.99	-16.79
354.20	-16.38
354.41	2.46
354.63	8.19
354.84	-5.32
355.05	-4.51
355.27	-13.93
355.48	6.14
355.70	6.14
355.91	27.03
356.12	-5.73
356.34	9.01
356.55	-15.97
356.76	12.29
356.98	-21.30
357.19	-54.48
357.40	36.86
357.62	-34.41
357.83	-54.07
358.04	-49.97
358.26	-68.40
358.47	71.68
358.68	-11.06
358.89	-21.30
359.11	-40.96
359.32	-36.86
359.53	-31.95
359.75	-36.45
359.96	39.73
360.17	-22.94
360.39	34.41
360.60	-39.73
360.81	-9.01
361.03	-22.53
361.24	-5.73
361.45	-64.31
361.67	-6.55
361.88	-18.84
362.09	-35.23
362.31	-12.70
362.52	-3.69
362.73	-12.70
362.94	5.32
363.16	-0.41
363.37	-8.19
363.58	53.25
363.80	-57.75
364.01	10.24
364.22	18.43
364.44	6.14
364.65	1.64
364.86	33.18
365.07	8.60
365.29	-3.28
365.50	-6.96
365.71	-36.04
365.93	-16.79
366.14	19.66
366.35	61.03
366.56	-12.29
366.78	-3.69
366.99	28.67
367.20	43.42
367.42	21.71
367.63	39.32
367.84	-24.58
368.05	14.34
368.27	47.10
368.48	-12.29
368.69	4.92
368.91	3.69
369.12	24.58
369.33	-50.38
369.54	24.99
369.76	-23.76
369.97	-20.89
370.18	-9.83
370.39	-6.14
370.61	-42.19
370.82	33.18
371.03	41.37
371.24	13.52
371.46	-5.73
371.67	2.05
371.88	-14.34
372.10	30.31
372.31	35.63
372.52	35.63
372.73	15.97
372.95	-18.43
373.16	-27.44
373.37	-25.80
373.58	-21.30
373.80	2.05
374.01	1.23
374.22	47.10
374.43	22.94
374.65	-51.61
374.86	34.00
375.07	-18.84
375.28	4.10
375.50	28.26
375.71	39.73
375.92	6.55
376.13	37.27
376.34	33.59
376.56	38.09
376.77	10.65
376.98	-26.62
377.19	-15.97
377.41	38.91
377.62	-20.48
377.83	-0.82
378.04	27.03
378.26	-1.64
378.47	12.70
378.68	44.65
378.89	-6.55
379.10	-3.69
379.32	-17.20
379.53	4.51
379.74	7.37
379.95	6.96
380.17	-49.97
380.38	11.47
380.59	-9.01
380.80	-17.20
381.01	4.10
381.23	-0.82
381.44	-1.64
381.65	22.12
381.86	9.83
382.08	31.13
382.29	-4.51
382.50	36.45
382.71	-1.64
382.92	-2.46
383.14	22.94
383.35	-3.28
383.56	-5.32
383.77	8.60
383.98	-7.37
384.20	8.60
384.41	-19.25
384.62	3.28
384.83	-4.92
385.04	33.59
385.26	9.83
385.47	17.61
385.68	-49.15
385.89	27.44
386.10	19.66
386.32	8.19
386.53	37.27
386.74	47.10
386.95	32.77
387.16	63.90
387.37	36.86
387.59	28.67
387.80	5.32
388.01	31.13
388.22	64.72
388.43	29.49
388.65	-0.00
388.86	71.68
389.07	4.10
389.28	21.30
389.49	29.49
389.70	49.56
389.92	58.16
390.13	20.48
390.34	23.35
390.55	2.05
390.76	-20.07
390.97	54.48
391.19	26.21
391.40	45.06
391.61	39.73
391.82	45.46
392.03	54.89
392.24	53.25
392.45	122.06
392.67	59.80
392.88	61.44
393.09	39.32
393.30	53.25
393.51	109.77
393.72	108.13
393.94	80.69
394.15	101.17
394.36	103.22
394.57	108.13
394.78	122.88
394.99	142.95
395.20	44.24
395.42	99.12
395.63	92.16
395.84	83.97
396.05	116.32
396.26	70.45
396.47	129.43
396.68	124.93
396.90	111.41
397.11	121.24
397.32	72.09
397.53	134.35
397.74	141.31
397.95	196.60
398.16	167.11
398.37	125.34
398.59	199.06
398.80	116.73
399.01	130.66
399.22	151.55
399.43	169.57
399.64	161.79
399.85	121.24
400.06	258.45
400.28	85.61
400.49	114.28
400.70	137.62
400.91	137.62
401.12	133.94
401.33	136.39
401.54	192.10
401.75	151.14
401.96	140.90
402.18	119.60
402.39	174.49
402.60	136.80
402.81	120.01
403.02	129.02
403.23	112.64
403.44	100.76
403.65	84.38
403.86	134.76
404.07	72.50
404.29	80.69
404.50	75.77
404.71	73.73
404.92	63.90
405.13	98.71
405.34	105.27
405.55	64.72
405.76	43.83
405.97	16.38
406.18	90.11
406.39	66.76
406.61	86.42
406.82	37.27
407.03	55.30
407.24	85.20
407.45	93.39
407.66	75.77
407.87	97.89
408.08	26.62
408.29	78.64
408.50	28.67
408.71	10.24
408.92	3.28
409.14	11.88
409.35	58.16
409.56	10.65
409.77	22.12
409.98	41.78
410.19	36.04
410.40	29.90
410.61	69.22
410.82	-1.64
411.03	3.28
411.24	108.13
411.45	49.15
411.66	-11.06
411.87	17.20
412.08	59.80
412.29	17.20
412.51	60.62
412.72	64.72
412.93	-13.11
413.14	60.21
413.35	-8.19
413.56	9.83
413.77	52.43
413.98	79.05
414.19	18.02
414.40	6.96
414.61	5.73
414.82	20.07
415.03	9.42
415.24	97.48
415.45	48.33
415.66	45.87
415.87	37.68
416.08	38.09
416.29	17.61
416.50	72.50
416.71	47.51
416.92	11.88
417.13	47.92
417.34	-18.02
417.55	20.48
417.77	17.20
417.98	53.25
418.19	2.05
418.40	14.75
418.61	29.90
418.82	4.92
419.03	9.01
419.24	24.17
419.45	-24.17
419.66	17.20
419.87	-49.97
420.08	7.78
420.29	-52.02
420.50	33.18
420.71	30.72
420.92	22.12
421.13	20.48
421.34	49.15
421.55	23.35
421.76	20.48
421.97	45.46
422.18	0.00
422.39	-5.32
422.60	-14.75
422.81	45.06
423.02	12.29
423.23	-16.79
423.44	44.24
423.65	26.62
423.86	42.60
424.07	15.56
424.28	-12.70
424.49	-44.24
424.70	47.51
424.91	-37.27
425.12	10.24
425.33	15.56
425.54	20.48
425.75	15.56
425.96	34.82
426.17	7.37
426.38	49.15
426.59	28.67
426.80	20.89
427.01	9.83
427.22	-22.94
427.43	-21.71
427.64	47.51
427.84	-16.79
428.05	-4.10
428.26	23.76
428.47	-2.87
428.68	-37.68
428.89	22.12
429.10	-49.15
429.31	6.96
429.52	-7.37
429.73	11.06
429.94	34.00
430.15	0.41
430.36	14.34
430.57	24.58
430.78	56.52
430.99	52.43
431.20	50.38
431.41	-30.31
431.62	-21.71
431.83	22.94
432.04	50.38
432.25	7.37
432.46	38.91
432.67	21.71
432.87	23.76
433.08	22.94
433.29	26.21
433.50	38.09
433.71	-24.58
433.92	-33.59
434.13	-31.54
434.34	-11.88
434.55	46.69
434.76	-16.38
434.97	4.92
435.18	15.97
435.39	-5.32
435.60	54.48
435.81	30.31
436.02	47.10
436.22	-21.71
436.43	33.18
436.64	21.30
436.85	-8.19
437.06	67.99
437.27	8.19
437.48	10.65
437.69	-6.14
437.90	-5.32
438.11	-10.65
438.32	8.19
438.53	19.25
438.74	-20.48
438.94	62.26
439.15	-9.42
439.36	13.11
439.57	44.65
439.78	9.01
439.99	72.09
440.20	-20.89
440.41	8.60
440.62	-9.01
440.83	11.88
441.04	31.13
441.24	32.36
441.45	4.10
441.66	-5.32
441.87	-35.23
442.08	25.80
442.29	-8.19
442.50	57.75
442.71	4.51
442.92	26.21
443.12	-5.32
443.33	6.14
443.54	29.90
443.75	1.23
443.96	24.17
444.17	19.25
444.38	46.28
444.59	47.92
444.80	28.26
445.00	-16.38
445.21	2.87
445.42	22.12
445.63	63.08
445.84	19.25
446.05	81.51
446.26	33.59
446.47	-36.86
446.67	35.63
446.88	-22.53
447.09	-3.69
447.30	36.04
447.51	67.17
447.72	8.60
447.93	6.96
448.14	-14.34
448.34	64.72
448.55	23.76
448.76	21.30
448.97	-7.37
449.18	10.65
449.39	21.30
449.60	34.00
449.80	29.90
450.01	30.31
450.22	18.84
450.43	13.93
450.64	15.56
450.85	-3.69
451.06	41.78
451.26	-57.75
451.47	33.18
451.68	3.28
451.89	29.08
452.10	29.90
452.31	-42.60
452.51	11.47
452.72	34.82
452.93	23.76
453.14	15.15
453.35	-30.72
453.56	2.87
453.76	42.19
453.97	21.30
454.18	56.11
454.39	-20.07
454.60	-49.97
454.81	-26.21
455.01	-14.34
455.22	-41.78
455.43	0.41
455.64	-2.05
455.85	20.48
456.06	33.18
456.26	57.75
456.47	43.01
456.68	32.36
456.89	1.23
457.10	69.63
457.30	16.38
457.51	56.11
457.72	-2.05
457.93	4.10
458.14	6.55
458.34	-37.68
458.55	40.14
458.76	-18.02
458.97	20.89
459.18	-20.48
459.39	14.34
459.59	31.13
459.80	11.06
460.01	-11.88
460.22	-15.15
460.42	36.86
460.63	19.66
460.84	0.82
461.05	57.34
461.26	-2.87
461.46	11.88
461.67	11.88
461.88	47.51
462.09	11.47
462.30	64.72
462.50	58.16
462.71	10.65
462.92	29.49
463.13	40.96
463.34	41.78
463.54	-4.10
463.75	-9.01
463.96	84.38
464.17	27.03
464.37	-16.79
464.58	47.92
464.79	13.52
465.00	-9.83
465.20	43.01
465.41	-10.65
465.62	50.38
465.83	4.10
466.04	38.91
466.24	-5.32
466.45	27.85
466.66	2.87
466.87	1.23
467.07	61.44
467.28	-2.46
467.49	38.91
467.70	65.13
467.90	63.90
468.11	11.88
468.32	11.88
468.53	23.35
468.73	40.96
468.94	43.42
469.15	45.06
469.36	28.26
469.56	1.64
469.77	31.95
469.98	91.34
470.19	28.26
470.39	43.01
470.60	46.69
470.81	37.68
471.02	30.72
471.22	22.12
471.43	69.22
471.64	91.75
471.85	36.45
472.05	78.64
472.26	19.25
472.47	31.54
472.67	59.80
472.88	13.52
473.09	18.02
473.30	49.97
473.50	63.49
473.71	24.58
473.92	29.08
474.12	26.62
474.33	7.78
474.54	76.18
474.75	13.93
474.95	126.56
475.16	48.74
475.37	9.42
475.57	80.28
475.78	33.59
475.99	41.37
476.20	37.27
476.40	45.06
476.61	56.52
476.82	99.53
477.02	49.15
477.23	-7.37
477.44	65.13
477.65	62.26
477.85	29.08
478.06	90.93
478.27	122.47
478.47	57.34
478.68	92.16
478.89	28.67
479.09	84.79
479.30	66.76
479.51	47.10
479.71	29.08
479.92	52.02
480.13	36.86
480.34	90.11
480.54	74.14
480.75	61.44
480.96	92.98
481.16	72.50
481.37	34.41
481.58	91.75
481.78	55.70
481.99	58.98
482.20	107.72
482.40	90.52
482.61	133.12
482.82	109.77
483.02	91.34
483.23	104.04
483.44	40.14
483.64	64.31
483.85	60.62
484.06	141.72
484.26	95.84
484.47	101.99
484.68	81.92
484.88	67.17
485.09	73.32
485.30	127.38
485.50	148.27
485.71	113.46
485.92	105.68
486.12	153.19
486.33	87.65
486.54	101.17
486.74	136.39
486.95	121.24
487.15	90.93
487.36	163.02
487.57	76.18
487.77	184.73
487.98	172.85
488.19	113.87
488.39	115.92
488.60	162.61
488.81	141.72
489.01	152.78
489.22	160.15
489.42	111.00
489.63	166.70
489.84	127.79
490.04	157.28
490.25	149.91
490.46	154.01
490.66	151.55
490.87	163.84
491.08	170.80
491.28	178.58
491.49	182.68
491.69	173.67
491.90	186.77
492.11	127.79
492.31	173.67
492.52	189.64
492.72	185.96
492.93	173.67
493.14	132.30
493.34	194.15
493.55	161.38
493.75	224.87
493.96	206.03
494.17	208.48
494.37	205.21
494.58	247.39
494.79	219.54
494.99	211.35
495.20	251.08
495.40	266.65
495.61	223.23
495.81	215.45
496.02	234.29
496.23	256.82
496.43	216.27
496.64	248.21
496.84	298.18
497.05	250.26
497.26	277.70
497.46	211.76
497.67	230.60
497.87	276.07
498.08	276.07
498.29	247.39
498.49	310.88
498.70	313.75
498.90	313.34
499.11	318.25
499.31	281.80
499.52	305.97
499.73	276.89
499.93	326.04
500.14	354.30
500.34	355.53
500.55	317.03
500.75	342.83
500.96	313.34
501.17	360.03
501.37	298.18
501.58	310.06
501.78	348.56
501.99	322.76
502.19	335.46
502.40	412.05
502.60	362.49
502.81	321.12
503.02	367.41
503.22	425.98
503.43	404.68
503.63	409.18
503.84	425.57
504.04	469.39
504.25	404.27
504.45	483.73
504.66	405.09
504.87	473.90
505.07	456.70
505.28	421.47
505.48	466.12
505.69	491.10
505.89	433.35
506.10	509.94
506.30	484.14
506.51	488.24
506.71	515.68
506.92	552.13
507.12	502.57
507.33	507.90
507.53	559.10
507.74	552.54
507.95	514.45
508.15	571.38
508.36	539.84
508.56	549.27
508.77	569.74
508.97	546.81
509.18	543.12
509.38	577.53
509.59	613.16
509.79	573.43
510.00	690.58
510.20	708.60
510.41	635.28
510.61	692.62
510.82	705.73
511.02	662.72
511.23	696.31
511.43	683.61
511.64	736.04
511.84	711.05
512.05	704.09
512.25	745.46
512.46	695.49
512.66	734.40
512.87	781.91
513.07	728.67
513.28	733.17
513.48	792.56
513.69	830.25
513.89	812.22
514.10	754.88
514.30	851.14
514.51	821.65
514.71	873.66
514.92	878.17
515.12	869.16
515.33	906.84
515.53	855.23
515.74	904.79
515.94	987.94
516.14	909.30
516.35	924.45
516.55	910.12
516.76	1026.85
516.96	996.13
517.17	995.72
517.37	972.79
517.58	967.46
517.78	1094.43
517.99	1066.58
518.19	1067.40
518.40	1046.51
518.60	1130.89
518.81	1098.94
519.01	1063.31
519.21	1115.32
519.42	1131.71
519.62	1217.72
519.83	1150.96
520.03	1148.09
520.24	1246.39
520.44	1188.64
520.65	1253.36
520.85	1258.27
521.06	1264.83
521.26	1260.32
521.46	1266.87
521.67	1294.73
521.87	1293.09
522.08	1306.60
522.28	1300.05
522.49	1385.25
522.69	1404.09
522.90	1395.08
523.10	1386.88
523.30	1437.67
523.51	1462.25
523.71	1418.83
523.92	1443.82
524.12	1513.86
524.33	1510.58
524.53	1520.41
524.73	1631.00
524.94	1551.95
525.14	1554.41
525.35	1620.35
525.55	1650.25
525.75	1631.41
525.96	1710.46
526.16	1681.79
526.37	1697.36
526.57	1727.67
526.78	1719.06
526.98	1741.59
527.18	1701.04
527.39	1836.21
527.59	1821.87
527.80	1854.64
528.00	1886.18
528.20	1843.17
528.41	1893.55
528.61	1915.26
528.82	1866.93
529.02	2010.29
529.22	2003.73
529.43	1993.08
529.63	2019.30
529.84	2129.89
530.04	2076.64
530.24	2133.57
530.45	2123.74
530.65	2119.24
530.86	2130.30
531.06	2280.62
531.26	2181.91
531.47	2214.67
531.67	2221.23
531.87	2300.69
532.08	2242.94
532.28	2320.35
532.49	2355.16
532.69	2378.10
532.89	2415.37
533.10	2389.16
533.30	2438.31
533.50	2439.13
533.71	2563.24
533.91	2487.05
534.12	2517.77
534.32	2578.39
534.52	2609.93
534.73	2691.44
534.93	2664.00
535.13	2702.50
535.34	2703.32
535.54	2761.48
535.74	2719.29
535.95	2762.71
536.15	2884.77
536.36	2759.02
536.56	2869.20
536.76	2810.63
536.97	2930.64
537.17	2901.56
537.37	2948.26
537.58	3038.37
537.78	3075.64
537.98	2984.30
538.19	3103.08
538.39	3141.99
538.59	3093.66
538.80	3157.97
539.00	3190.33
539.20	3243.57
539.41	3325.08
539.61	3331.64
539.81	3338.60
540.02	3282.07
540.22	3414.78
540.42	3366.86
540.63	3425.43
540.83	3495.88
541.03	3475.40
541.24	3471.31
541.44	3522.92
541.64	3525.78
541.85	3615.89
542.05	3661.36
542.25	3643.75
542.46	3694.95
542.66	3662.18
542.86	3806.76
543.07	3846.49
543.27	3816.18
543.47	3861.24
543.67	3916.13
543.88	3932.51
544.08	3920.22
544.28	3992.72
544.49	4023.85
544.69	4016.89
544.89	4017.71
545.10	4061.12
545.30	4111.91
545.50	4177.86
545.70	4221.27
545.91	4241.34
546.11	4284.76
546.31	4353.98
546.52	4323.26
546.72	4341.28
546.92	4321.62
547.13	4349.48
547.33	4462.52
547.53	4494.88
547.73	4526.83
547.94	4492.83
548.14	4638.24
548.34	4544.85
548.54	4557.96
548.75	4682.89
548.95	4747.60
549.15	4743.10
549.36	4625.13
549.56	4815.18
549.76	4687.80
549.96	4757.84
550.17	4846.72
550.37	4805.35
550.57	4974.11
550.77	4948.71
550.98	5051.11
551.18	5054.39
551.38	5049.06
551.59	5073.64
551.79	5026.53
551.99	5135.49
552.19	5185.46
552.40	5240.34
552.60	5223.96
552.80	5275.16
553.00	5210.44
553.21	5264.51
553.41	5253.45
553.61	5397.22
553.81	5373.46
554.02	5420.56
554.22	5420.97
554.42	5396.81
554.62	5575.80
554.83	5514.77
555.03	5587.27
555.23	5456.20
555.43	5593.00
555.63	5595.05
555.84	5692.94
556.04	5681.47
556.24	5713.42
556.44	5717.11
556.65	5759.30
556.85	5747.42
557.05	5742.09
557.25	5792.07
557.46	5846.95
557.66	5867.84
557.86	5862.92
558.06	5883.81
558.26	5928.05
558.47	5998.09
558.67	5931.33
558.87	6047.24
559.07	6055.02
559.27	6011.61
559.48	5933.38
559.68	6022.67
559.88	6032.09
560.08	6105.81
560.29	6113.60
560.49	6192.65
560.69	6147.59
560.89	6145.14
561.09	6097.62
561.30	6114.42
561.50	6199.20
561.70	6132.85
561.90	6193.88
562.10	6184.46
562.30	6255.32
562.51	6290.13
562.71	6268.42
562.91	6228.69
563.11	6211.08
563.31	6329.04
563.52	6293.41
563.72	6353.62
563.92	6370.41
564.12	6380.65
564.32	6324.13
564.53	6295.87
564.73	6249.58
564.93	6295.87
565.13	6333.14
565.33	6301.19
565.53	6385.98
565.74	6286.04
565.94	6333.96
566.14	6390.07
566.34	6363.04
566.54	6360.17
566.74	6456.84
566.95	6327.40
567.15	6359.76
567.35	6408.09
567.55	6413.01
567.75	6391.30
567.95	6397.44
568.16	6296.28
568.36	6367.54
568.56	6430.21
568.76	6336.82
568.96	6333.55
569.16	6374.51
569.36	6351.98
569.57	6340.51
569.77	6400.31
569.97	6374.51
570.17	6354.85
570.37	6384.34
570.57	6298.73
570.77	6216.81
570.98	6304.06
571.18	6248.35
571.38	6312.25
571.58	6289.31
571.78	6265.56
571.98	6227.46
572.18	6197.56
572.39	6204.53
572.59	6274.98
572.79	6258.18
572.99	6329.45
573.19	6220.91
573.39	6192.24
573.59	6191.83
573.79	6211.49
573.99	6223.37
574.20	6127.52
574.40	6028.40
574.60	6120.97
574.80	6030.04
575.00	6077.55
575.20	6069.36
575.40	6082.06
575.60	6064.45
575.80	5987.03
576.01	6004.23
576.21	6042.74
576.41	5934.60
576.61	5962.46
576.81	5916.99
577.01	5933.78
577.21	5916.17
577.41	5816.23
577.61	5889.96
577.81	5850.64
578.02	5813.36
578.22	5826.06
578.42	5726.94
578.62	5586.04
578.82	5626.59
579.02	5699.09
579.22	5699.09
579.42	5631.50
579.62	5584.40
579.82	5495.11
580.02	5567.20
580.23	5497.57
580.43	5516.00
580.63	5502.07
580.83	5487.74
581.03	5403.36
581.23	5444.73
581.43	5355.03
581.63	5334.96
581.83	5321.85
582.03	5207.57
582.23	5258.77
582.43	5315.30
582.63	5243.21
582.83	5163.34
583.03	5137.53
583.24	5126.07
583.44	5049.06
583.64	5059.71
583.84	5034.32
584.04	4947.48
584.24	5014.25
584.44	4896.69
584.64	4913.49
584.84	4979.43
585.04	4806.99
585.24	4832.39
585.44	4836.48
585.64	4794.29
585.84	4714.42
586.04	4713.20
586.24	4614.48
586.44	4726.71
586.64	4604.24
586.84	4582.53
587.04	4534.20
587.24	4513.31
587.44	4559.60
587.65	4519.05
587.85	4335.55
588.05	4405.59
588.25	4428.53
588.45	4316.30
588.65	4349.07
588.85	4274.52
589.05	4207.76
589.25	4226.60
589.45	4244.62
589.65	4183.59
589.85	4093.07
590.05	4068.09
590.25	4051.70
590.45	4057.85
590.65	4014.84
590.85	3970.19
591.05	3954.22
591.25	3932.51
591.45	3874.76
591.65	3830.52
591.85	3845.68
592.05	3716.24
592.25	3660.13
592.45	3701.09
592.65	3790.79
592.85	3679.38
593.05	3670.37
593.25	3691.67
593.45	3574.93
593.65	3600.74
593.85	3488.51
594.05	3532.34
594.25	3477.86
594.45	3463.12
594.65	3336.14
594.85	3386.11
595.05	3340.24
595.25	3400.86
595.45	3167.80
595.65	3273.47
595.85	3183.36
596.05	3196.06
596.25	3205.07
596.45	3122.74
596.65	3117.42
596.84	3084.65
597.04	3043.69
597.24	3036.73
597.44	3030.99
597.64	2994.54
597.84	2983.48
598.04	2959.72
598.24	2875.76
598.44	2885.18
598.64	2849.54
598.84	2842.17
599.04	2775.00
599.24	2744.28
599.44	2737.72
599.64	2697.17
599.84	2648.02
600.04	2703.32
600.24	2632.05
600.44	2620.58
600.64	2561.60
600.84	2488.28
601.04	2555.05
601.23	2514.91
601.43	2418.65
601.63	2479.68
601.83	2474.77
602.03	2438.31
602.23	2422.75
602.43	2314.20
602.63	2353.94
602.83	2264.64
603.03	2376.87
603.23	2325.67
603.43	2324.85
603.63	2275.29
603.83	2191.33
604.03	2170.85
604.22	2170.85
604.42	2188.87
604.62	2056.16
604.82	2073.36
605.02	2097.12
605.22	2022.98
605.42	2034.45
605.62	2080.33
605.82	2023.80
606.02	1925.91
606.22	1953.35
606.41	1957.04
606.61	1930.82
606.81	1885.36
607.01	1896.83
607.21	1868.57
607.41	1854.64
607.61	1871.43
607.81	1801.39
608.01	1704.32
608.21	1829.25
608.40	1708.01
608.60	1705.96
608.80	1746.10
609.00	1769.45
609.20	1717.43
609.40	1672.78
609.60	1678.11
609.80	1646.57
610.00	1592.50
610.19	1598.23
610.39	1582.26
610.59	1581.85
610.79	1539.25
610.99	1528.60
611.19	1539.66
611.39	1532.29
611.59	1513.45
611.78	1522.87
611.98	1468.80
612.18	1474.54
612.38	1443.82
612.58	1474.54
612.78	1421.70
612.98	1395.08
613.17	1447.09
613.37	1327.49
613.57	1326.26
613.77	1343.47
613.97	1319.30
614.17	1333.64
614.37	1334.46
614.56	1383.61
614.76	1226.73
614.96	1261.14
615.16	1230.83
615.36	1241.89
615.56	1283.26
615.76	1302.51
615.95	1226.73
616.15	1225.50
616.35	1215.26
616.55	1189.46
616.75	1168.16
616.95	1159.15
617.14	1192.74
617.34	1213.22
617.54	1132.53
617.74	1150.96
617.94	1085.42
618.14	1123.93
618.33	1098.94
618.53	1148.50
618.73	1023.17
618.93	1039.55
619.13	1066.99
619.33	1037.50
619.52	977.29
619.72	1039.96
619.92	1011.29
620.12	1026.85
620.32	1007.19
620.51	994.08
620.71	1008.42
620.91	983.84
621.11	928.14
621.31	952.31
621.50	918.31
621.70	939.20
621.90	917.49
622.10	905.61
622.30	958.04
622.49	884.31
622.69	889.23
622.89	899.88
623.09	858.51
623.29	845.81
623.48	904.38
623.68	811.41
623.88	856.05
624.08	824.10
624.28	881.04
624.47	811.81
624.67	862.19
624.87	814.27
625.07	838.85
625.26	794.20
625.46	773.72
625.66	820.42
625.86	789.29
626.06	851.95
626.25	743.82
626.45	793.38
626.65	792.97
626.85	713.10
627.04	797.07
627.24	770.86
627.44	765.94
627.64	712.28
627.83	751.19
628.03	741.36
628.23	725.39
628.43	694.67
628.63	690.98
628.82	711.46
629.02	745.87
629.22	695.49
629.42	688.12
629.61	690.17
629.81	638.56
630.01	654.53
630.21	614.80
630.40	673.78
630.60	724.98
630.80	669.28
630.99	632.41
631.19	576.30
631.39	618.49
631.59	594.73
631.78	633.23
631.98	641.01
632.18	656.99
632.38	663.95
632.57	580.39
632.77	634.87
632.97	569.74
633.17	667.64
633.36	581.62
633.56	596.78
633.76	636.92
633.95	615.62
634.15	606.20
634.35	659.04
634.55	544.35
634.74	558.28
634.94	566.06
635.14	573.84
635.33	545.99
635.53	610.29
635.73	568.52
635.93	593.50
636.12	580.39
636.32	523.87
636.52	564.42
636.71	591.45
636.91	581.21
637.11	580.80
637.30	538.62
637.50	551.31
637.70	543.53
637.90	518.55
638.09	582.03
638.29	516.50
638.49	524.69
638.68	473.49
638.88	518.55
639.08	554.18
639.27	553.77
639.47	493.15
639.67	527.56
639.86	526.74
640.06	563.60
640.26	498.07
640.45	523.46
640.65	507.08
640.85	484.55
641.04	514.45
641.24	475.13
641.44	490.28
641.63	481.68
641.83	488.24
642.03	502.98
642.22	525.10
642.42	491.51
642.62	504.62
642.81	446.87
643.01	464.48
643.21	541.07
643.40	464.07
643.60	450.96
643.80	461.61
643.99	477.18
644.19	462.02
644.39	446.46
644.58	442.77
644.78	433.35
644.98	439.90
645.17	432.94
645.37	457.11
645.56	462.43
645.76	424.34
645.96	462.84
646.15	457.11
646.35	421.88
646.55	478.41
646.74	402.22
646.94	460.38
647.13	447.69
647.33	402.22
647.53	424.34
647.72	424.34
647.92	450.55
648.12	444.82
648.31	458.74
648.51	476.77
648.70	398.94
648.90	479.22
649.10	456.70
649.29	446.87
649.49	391.98
649.69	385.02
649.88	439.90
650.08	386.25
650.27	421.47
650.47	368.63
650.67	468.58
650.86	466.12
651.06	408.36
651.25	394.44
651.45	444.00
651.65	403.86
651.84	396.49
652.04	453.42
652.23	339.55
652.43	433.35
652.63	380.10
652.82	385.43
653.02	418.60
653.21	435.40
653.41	378.06
653.60	421.47
653.80	415.33
654.00	416.56
654.19	389.11
654.39	410.41
654.58	391.98
654.78	430.07
654.97	343.65
655.17	338.73
655.37	385.02
655.56	412.05
655.76	362.08
655.95	385.43
656.15	356.76
656.34	438.27
656.54	409.59
656.74	341.60
656.93	404.27
657.13	435.81
657.32	391.98
657.52	384.61
657.71	391.16
657.91	402.63
658.10	297.37
658.30	356.76
658.50	404.68
658.69	360.85
658.89	396.49
659.08	369.45
659.28	380.92
659.47	411.64
659.67	378.87
659.86	361.67
660.06	373.14
660.25	403.04
660.45	379.69
660.64	412.46
660.84	330.13
661.04	326.86
661.23	351.43
661.43	336.69
661.62	352.25
661.82	348.15
662.01	391.57
662.21	395.26
662.40	384.61
662.60	355.53
662.79	382.97
662.99	386.66
663.18	373.14
663.38	364.54
663.57	360.03
663.77	363.72
663.96	402.63
664.16	334.23
664.35	363.72
664.55	355.94
664.74	374.78
664.94	355.12
665.13	352.66
665.33	340.37
665.52	382.97
665.72	363.72
665.91	325.22
666.11	337.10
666.30	360.44
666.50	344.06
666.69	346.11
666.89	340.37
667.08	274.02
667.28	393.21
667.47	299.41
667.67	366.18
667.86	382.97
668.06	336.28
668.25	345.70
668.45	343.65
668.64	347.34
668.84	351.43
669.03	324.81
669.22	352.25
669.42	384.61
669.61	363.31
669.81	378.87
670.00	314.16
670.20	314.98
670.39	379.28
670.59	311.70
670.78	312.93
670.98	289.58
671.17	310.47
671.37	313.75
671.56	336.28
671.75	367.82
671.95	334.23
672.14	332.18
672.34	334.23
672.53	322.76
672.73	285.49
672.92	322.35
673.12	337.10
673.31	313.34
673.50	352.25
673.70	332.18
673.89	312.93
674.09	335.87
674.28	330.95
674.48	261.32
674.67	341.19
674.86	321.12
675.06	363.31
675.25	320.71
675.45	299.00
675.64	333.00
675.84	339.14
676.03	326.45
676.22	305.97
676.42	285.49
676.61	333.00
676.81	340.37
677.00	385.02
677.20	275.25
677.39	328.08
677.58	311.70
677.78	286.31
677.97	289.58
678.17	310.47
678.36	291.22
678.55	317.84
678.75	325.63
678.94	315.80
679.14	341.19
679.33	310.06
679.52	263.37
679.72	358.39
679.91	328.08
680.11	339.96
680.30	272.79
680.49	271.15
680.69	339.96
680.88	299.82
681.07	309.24
681.27	316.21
681.46	337.51
681.66	306.38
681.85	331.77
682.04	292.45
682.24	334.23
682.43	299.00
682.62	310.06
682.82	275.66
683.01	310.47
683.21	278.93
683.40	308.01
683.59	286.72
683.79	341.19
683.98	303.92
684.17	317.03
684.37	279.75
684.56	283.44
684.75	346.93
684.95	301.87
685.14	265.83
685.34	340.78
685.53	311.29
685.72	321.12
685.92	265.42
686.11	318.66
686.30	328.08
686.50	246.58
686.69	319.07
686.88	312.52
687.08	305.56
687.27	267.87
687.46	325.63
687.66	337.91
687.85	253.95
688.04	235.11
688.24	275.25
688.43	315.80
688.62	265.42
688.82	337.51
689.01	272.79
689.20	292.04
689.40	296.55
689.59	306.79
689.78	286.72
689.98	294.50
690.17	280.98
690.36	261.32
690.56	270.33
690.75	322.76
690.94	303.10
691.13	325.63
691.33	276.48
691.52	257.22
691.71	247.80
691.91	253.95
692.10	312.11
692.29	316.62
692.49	294.91
692.68	287.94
692.87	234.29
693.06	286.72
693.26	267.06
693.45	337.51
693.64	290.40
693.84	293.27
694.03	296.55
694.22	318.66
694.42	287.94
694.61	288.35
694.80	330.95
694.99	258.86
695.19	254.77
695.38	216.68
695.57	299.82
695.76	262.96
695.96	300.64
696.15	305.97
696.34	298.18
696.54	233.88
696.73	291.22
696.92	278.93
697.11	239.20
697.31	277.29
697.50	303.51
697.69	241.25
697.88	253.95
698.08	222.41
698.27	269.10
698.46	237.15
698.65	302.28
698.85	288.35
699.04	292.04
699.23	271.97
699.42	290.81
699.62	242.89
699.81	229.78
700.00	321.12
700.19	306.79
700.39	238.38
700.58	269.10
700.77	269.92
700.96	220.77
701.16	249.44
701.35	260.91
701.54	299.82
701.73	245.76
701.92	292.04
702.12	224.05
702.31	256.41
702.50	293.68
702.69	291.63
702.89	207.66
703.08	291.22
703.27	235.52
703.46	258.04
703.65	287.94
703.85	278.93
704.04	219.54
704.23	258.86
704.42	272.79
704.62	258.45
704.81	268.28
705.00	256.82
705.19	287.94
705.38	317.03
705.58	234.70
705.77	203.16
705.96	249.85
706.15	209.71
706.34	265.42
706.54	276.89
706.73	213.40
706.92	226.91
707.11	295.32
707.30	233.88
707.50	251.08
707.69	251.90
707.88	265.42
708.07	263.37
708.26	234.70
708.45	243.71
708.65	214.22
708.84	258.04
709.03	207.66
709.22	235.11
709.41	276.89
709.60	235.11
709.80	230.60
709.99	274.84
710.18	251.49
710.37	260.50
710.56	247.39
710.75	191.28
710.95	105.27
711.14	236.34
711.33	261.73
711.52	199.06
711.71	230.60
711.90	206.84
712.10	226.51
712.29	207.25
712.48	255.59
712.67	249.44
712.86	185.96
713.05	240.43
713.24	222.82
713.44	264.60
713.63	279.34
713.82	219.95
714.01	231.01
714.20	209.30
714.39	222.82
714.58	222.00
714.78	201.52
714.97	235.52
715.16	229.37
715.35	256.82
715.54	269.10
715.73	231.42
715.92	228.55
716.11	194.15
716.31	246.58
716.50	278.11
716.69	222.41
716.88	214.22
717.07	241.25
717.26	218.72
717.45	277.70
717.64	212.99
717.83	249.85
718.03	207.25
718.22	214.63
718.41	245.76
718.60	235.52
718.79	224.46
718.98	287.53
719.17	206.44
719.36	211.35
719.55	209.30
719.74	203.98
719.94	231.83
720.13	243.30
720.32	178.99
720.51	193.74
720.70	272.38
720.89	212.99
721.08	215.04
721.27	227.73
721.46	229.37
721.65	259.68
721.84	216.68
722.03	219.13
722.22	234.29
722.42	163.84
722.61	270.74
722.80	189.23
722.99	230.19
723.18	203.16
723.37	242.07
723.56	231.83
723.75	201.93
723.94	234.29
724.13	192.92
724.32	197.01
724.51	217.08
724.70	203.98
724.89	228.14
725.08	228.96
725.27	217.08
725.47	182.68
725.66	219.54
725.85	212.17
726.04	240.02
726.23	249.85
726.42	219.13
726.61	207.25
726.80	210.53
726.99	203.57
727.18	123.29
727.37	195.79
727.56	202.75
727.75	180.22
727.94	197.42
728.13	188.82
728.32	194.15
728.51	190.87
728.70	228.96
728.89	232.24
729.08	237.97
729.27	235.93
729.46	150.32
729.65	189.64
729.84	180.63
730.03	150.32
730.22	226.10
730.41	169.98
730.60	178.58
730.79	177.35
730.98	212.99
731.17	242.89
731.36	205.21
731.55	170.80
731.74	185.96
731.93	259.68
732.12	188.41
732.31	178.58
732.50	178.99
732.69	244.12
732.88	168.34
733.07	191.28
733.26	214.22
733.45	176.53
733.64	179.81
733.83	184.32
734.02	219.13
734.21	146.63
734.40	182.68
734.59	160.97
734.78	161.79
734.97	202.75
735.16	218.31
735.35	203.16
735.54	267.87
735.73	237.15
735.92	214.22
736.11	177.35
736.30	208.89
736.49	229.78
736.68	169.16
736.87	237.15
737.06	250.26
737.25	183.09
737.44	183.91
737.63	176.94
737.82	203.16
738.00	124.93
738.19	189.64
738.38	203.98
738.57	206.84
738.76	190.46
738.95	170.39
739.14	141.31
739.33	192.10
739.52	152.37
739.71	125.75
739.90	119.60
740.09	236.75
740.28	206.44
740.47	159.74
740.66	123.29
740.85	171.62
741.03	167.93
741.22	188.41
741.41	144.18
741.60	197.83
741.79	191.69
741.98	158.10
742.17	151.55
742.36	181.04
742.55	143.77
742.74	197.01
742.93	163.43
743.12	166.70
743.30	227.32
743.49	161.79
743.68	170.80
743.87	167.52
744.06	187.18
744.25	249.44
744.44	176.13
744.63	158.10
744.82	186.37
745.01	174.49
745.19	158.10
745.38	194.56
745.57	126.97
745.76	159.33
745.95	154.01
746.14	168.34
746.33	95.44
746.52	115.92
746.71	123.70
746.89	192.51
747.08	138.03
747.27	185.14
747.46	120.42
747.65	156.87
747.84	193.74
748.03	178.17
748.22	126.15
748.40	164.25
748.59	117.14
748.78	165.89
748.97	130.66
749.16	148.27
749.35	194.97
749.54	140.08
749.72	155.24
749.91	140.90
750.10	132.30
750.29	135.99
750.48	126.56
750.67	176.53
750.86	202.75
751.04	147.04
751.23	137.62
751.42	142.13
751.61	187.59
751.80	146.22
751.99	130.66
752.18	152.78
752.36	163.43
752.55	140.08
752.74	152.78
752.93	386.25
753.12	191.28
753.31	169.98
753.49	167.52
753.68	152.78
753.87	145.00
754.06	156.87
754.25	124.52
754.43	146.63
754.62	138.85
754.81	177.76
755.00	163.43
755.19	123.70
755.38	156.46
755.56	95.84
755.75	143.36
755.94	145.41
756.13	164.66
756.32	135.17
756.50	158.92
756.69	182.27
756.88	153.60
757.07	180.22
757.26	146.63
757.44	122.06
757.63	142.13
757.82	134.35
758.01	201.52
758.20	147.45
758.38	186.77
758.57	154.42
758.76	135.58
758.95	102.81
759.13	120.01
759.32	116.32
759.51	149.50
759.70	124.93
759.89	134.76
760.07	179.40
760.26	140.90
760.45	140.08
760.64	85.20
760.82	138.03
761.01	122.06
761.20	154.01
761.39	118.37
761.57	112.64
761.76	127.38
761.95	97.48
762.14	143.36
762.33	165.89
762.51	177.35
762.70	138.03
762.89	130.66
763.08	175.72
763.26	108.13
763.45	151.55
763.64	133.12
763.83	119.60
764.01	187.18
764.20	124.11
764.39	153.19
764.57	124.11
764.76	97.48
764.95	82.74
765.14	154.01
765.32	119.19
765.51	131.48
765.70	186.77
765.89	159.33
766.07	84.38
766.26	143.36
766.45	148.68
766.63	101.58
766.82	158.51
767.01	116.73
767.20	125.75
767.38	130.25
767.57	154.01
767.76	92.16
767.94	153.19
768.13	90.93
768.32	113.46
768.51	149.50
768.69	155.24
768.88	75.37
769.07	111.00
769.25	94.21
769.44	47.51
769.63	160.97
769.82	92.57
770.00	191.28
770.19	122.47
770.38	167.11
770.56	131.48
770.75	82.74
770.94	98.71
771.12	104.86
771.31	112.23
771.50	129.02
771.68	97.89
771.87	124.93
772.06	144.59
772.24	165.07
772.43	96.66
772.62	103.63
772.80	88.88
772.99	153.19
773.18	160.97
773.36	127.79
773.55	123.29
773.74	153.19
773.92	151.96
774.11	93.80
774.30	104.04
774.48	133.12
774.67	120.42
774.86	120.42
775.04	114.69
775.23	154.42
775.42	99.12
775.60	138.85
775.79	87.65
775.98	140.90
776.16	67.17
776.35	86.01
776.53	91.34
776.72	163.02
776.91	71.27
777.09	77.00
777.28	122.06
777.47	167.52
777.65	79.87
777.84	105.27
778.03	113.05
778.21	77.82
778.40	91.34
778.58	153.60
778.77	102.81
778.96	97.07
779.14	104.86
779.33	95.44
779.52	81.92
779.70	112.64
779.89	118.37
780.07	124.52
780.26	101.99
780.45	55.30
780.63	161.38
780.82	113.46
781.00	113.46
781.19	62.26
781.38	113.87
781.56	90.93
781.75	123.70
781.93	121.65
782.12	55.30
782.31	92.57
782.49	118.78
782.68	92.57
782.86	105.27
783.05	126.56
783.23	144.59
783.42	76.18
783.61	67.99
783.79	118.37
783.98	126.56
784.16	120.83
784.35	78.23
784.54	90.93
784.72	89.70
784.91	115.10
785.09	136.39
785.28	111.41
785.46	78.23
785.65	80.28
785.83	65.53
786.02	101.99
786.21	70.04
786.39	70.04
786.58	95.03
786.76	78.64
786.95	70.86
787.13	43.83
787.32	53.66
787.50	125.34
787.69	113.05
787.88	54.48
788.06	116.32
788.25	105.68
788.43	76.59
788.62	90.93
788.80	97.89
788.99	127.79
789.17	88.47
789.36	136.39
789.54	87.24
789.73	73.73
789.91	83.97
790.10	127.38
790.29	104.86
790.47	125.34
790.66	81.92
790.84	96.25
791.03	83.56
791.21	65.94
791.40	50.38
791.58	83.56
791.77	44.65
791.95	64.72
792.14	34.82
792.32	108.13
792.51	57.75
792.69	62.67
792.88	129.43
793.06	105.27
793.25	92.16
793.43	101.99
793.62	104.45
793.80	66.76
793.99	92.98
794.17	55.70
794.36	64.72
794.54	109.77
794.73	69.63
794.91	76.59
795.10	61.03
795.28	109.77
795.47	67.99
795.65	61.44
795.84	133.12
796.02	47.51
796.20	92.57
796.39	114.69
796.57	33.59
796.76	95.03
796.94	85.20
797.13	106.49
797.31	95.44
797.50	76.18
797.68	130.66
797.87	158.92
798.05	88.06
798.24	90.11
798.42	57.75
798.60	67.99
798.79	73.32
798.97	53.66
799.16	62.26
799.34	99.12
799.53	104.04
799.71	100.35
799.90	82.33
800.08	90.52
800.26	111.82
800.45	70.86
800.63	67.58
800.82	58.57
801.00	72.91
801.19	122.47
801.37	83.15
801.56	72.50
801.74	83.56
801.92	41.78
802.11	36.86
802.29	45.87
802.48	111.82
802.66	3.28
802.84	43.42
803.03	82.74
803.21	117.96
803.40	82.33
803.58	43.83
803.77	99.12
803.95	88.47
804.13	39.32
804.32	9.42
804.50	86.83
804.69	62.67
804.87	109.36
805.05	73.73
805.24	90.93
805.42	70.45
805.61	106.49
805.79	84.38
805.97	81.51
806.16	80.69
806.34	-76.18
806.53	113.46
806.71	119.60
806.89	62.26
807.08	108.54
807.26	126.97
807.44	42.19
807.63	72.09
807.81	16.38
808.00	14.34
808.18	81.10
808.36	154.42
808.55	93.80
808.73	8.19
808.91	116.73
809.10	81.10
809.28	49.97
809.46	52.84
809.65	99.53
809.83	82.33
810.02	96.25
810.20	30.72
810.38	83.56
810.57	51.20
810.75	47.51
810.93	6.55
811.12	56.93
811.30	36.04
811.48	35.63
811.67	16.79
811.85	62.26
812.03	41.37
812.22	74.14
812.40	108.95
812.58	67.17
812.77	84.79
812.95	56.52
813.13	15.15
813.32	80.69
813.50	72.09
813.68	52.84
813.87	48.74
814.05	81.92
814.23	50.79
814.42	42.19
814.60	31.13
814.78	85.61
814.97	75.37
815.15	76.18
815.33	104.45
815.51	51.61
815.70	70.45
815.88	45.06
816.06	29.90
816.25	105.27
816.43	55.30
816.61	66.76
816.80	62.26
816.98	83.15
817.16	57.75
817.34	63.49
817.53	66.35
817.71	52.43
817.89	82.33
818.08	72.50
818.26	130.66
818.44	81.10
818.62	55.70
818.81	90.52
818.99	81.10
819.17	98.30
819.36	67.58
819.54	62.67
819.72	86.83
819.90	62.26
820.09	35.63
820.27	86.01
820.45	51.61
820.63	63.90
820.82	41.37
821.00	-26.21
821.18	66.76
821.36	47.92
821.55	77.82
821.73	44.65
821.91	47.51
822.10	83.15
822.28	33.59
822.46	45.46
822.64	54.48
822.82	49.97
823.01	53.25
823.19	63.08
823.37	39.32
823.55	46.69
823.74	61.85
823.92	48.74
824.10	94.62
824.28	56.93
824.47	41.78
824.65	63.90
824.83	29.90
825.01	3.28
825.20	51.61
825.38	71.68
825.56	97.89
825.74	63.90
825.92	47.92
826.11	77.00
826.29	65.94
826.47	45.46
826.65	61.03
826.83	40.55
827.02	29.49
827.20	57.34
827.38	51.61
827.56	127.79
827.74	41.37
827.93	24.58
828.11	41.37
828.29	80.28
828.47	-3.69
828.65	43.42
828.84	83.15
829.02	45.46
829.20	48.33
829.38	41.78
829.56	59.39
829.75	61.44
829.93	91.34
830.11	60.62
830.29	58.16
830.47	60.21
830.65	81.92
830.84	50.79
831.02	28.67
831.20	-0.41
831.38	59.80
831.56	35.23
831.74	47.92
831.93	2.87
832.11	47.51
832.29	63.90
832.47	41.37
832.65	37.68
832.83	22.12
833.02	117.55
833.20	92.16
833.38	66.35
833.56	24.17
833.74	37.68
833.92	46.28
834.10	49.15
834.29	25.39
834.47	70.86
834.65	43.83
834.83	64.31
835.01	79.87
835.19	70.04
835.37	45.87
835.56	59.80
835.74	31.13
835.92	27.03
836.10	67.99
836.28	27.85
836.46	28.26
836.64	16.38
836.82	30.31
837.01	24.17
837.19	77.41
837.37	19.25
837.55	63.90
837.73	43.42
837.91	58.16
838.09	34.82
838.27	-23.76
838.45	34.00
838.64	45.87
838.82	19.25
839.00	-24.17
839.18	44.24
839.36	69.22
839.54	45.46
839.72	44.24
839.90	44.24
840.08	39.73
840.26	39.73
840.45	23.35
840.63	16.79
840.81	52.84
840.99	74.14
841.17	11.06
841.35	51.61
841.53	61.85
841.71	82.74
841.89	-25.39
842.07	47.92
842.25	-9.83
842.43	28.26
842.61	53.66
842.79	97.07
842.98	53.25
843.16	22.53
843.34	65.13
843.52	-0.00
843.70	4.10
843.88	47.51
844.06	11.47
844.24	80.69
844.42	8.60
844.60	38.91
844.78	43.83
844.96	14.34
845.14	9.42
845.32	29.08
845.50	47.92
845.68	50.79
845.86	43.01
846.04	27.44
846.22	9.42
846.40	72.50
846.58	48.74
846.77	29.08
846.95	69.63
847.13	38.09
847.31	54.07
847.49	41.37
847.67	20.48
847.85	59.80
848.03	8.19
848.21	17.20
848.39	40.55
848.57	52.84
848.75	20.89
848.93	43.42
849.11	36.04
849.29	10.65
849.47	32.77
849.65	5.73
849.83	-4.10
850.01	38.09
850.19	51.61
850.37	15.56
850.55	39.73
850.73	-13.11
850.91	27.44
851.09	22.94
851.27	19.66
851.45	0.82
851.63	9.42
851.81	14.34
851.99	81.10
852.17	85.20
852.35	23.76
852.53	92.16
852.71	27.44
852.89	3.28
853.07	49.56
853.25	6.55
853.42	43.42
853.60	26.21
853.78	51.20
853.96	38.91
854.14	0.00
854.32	19.25
854.50	8.60
854.68	23.35
854.86	-1.23
855.04	28.26
855.22	8.19
855.40	81.10
855.58	15.15
855.76	36.86
855.94	47.51
856.12	67.58
856.30	12.70
856.48	31.13
856.66	43.42
856.84	29.08
857.02	-13.52
857.19	-11.47
857.37	70.04
857.55	36.45
857.73	12.70
857.91	3.69
858.09	39.32
858.27	-13.93
858.45	14.75
858.63	37.68
858.81	20.48
858.99	20.48
859.17	40.14
859.35	15.97
859.52	41.78
859.70	9.01
859.88	66.35
860.06	52.43
860.24	36.86
860.42	4.92
860.60	33.18
860.78	-12.70
860.96	33.59
861.14	26.21
861.31	46.28
861.49	49.15
861.67	74.14
861.85	-2.46
862.03	-9.42
862.21	42.60
862.39	-26.21
862.57	0.00
862.75	78.64
862.92	18.84
863.10	27.44
863.28	2.46
863.46	-39.32
863.64	39.32
863.82	34.41
864.00	48.74
864.18	6.55
864.35	48.33
864.53	-1.23
864.71	45.46
864.89	54.07
865.07	27.44
865.25	38.09
865.43	31.95
865.61	0.41
865.78	12.70
865.96	9.83
866.14	45.87
866.32	64.72
866.50	56.11
866.68	-9.01
866.85	18.43
867.03	43.42
867.21	40.96
867.39	-30.72
867.57	43.42
867.75	-17.61
867.93	-34.00
868.10	35.23
868.28	29.49
868.46	54.89
868.64	54.89
868.82	10.24
868.99	22.12
869.17	17.20
869.35	11.06
869.53	35.63
869.71	62.67
869.89	-0.82
870.06	60.21
870.24	40.96
870.42	66.76
870.60	34.41
870.78	31.95
870.95	-0.41
871.13	41.78
871.31	7.37
871.49	52.43
871.67	45.87
871.84	2.46
872.02	63.49
872.20	-6.55
872.38	7.78
872.56	42.19
872.73	-6.96
872.91	21.30
873.09	35.23
873.27	-9.83
873.45	76.59
873.62	53.25
873.80	36.45
873.98	58.57
874.16	43.42
874.33	3.28
874.51	56.52
874.69	31.13
874.87	47.92
875.05	56.52
875.22	17.61
875.40	27.03
875.58	31.13
875.76	29.90
875.93	-3.28
876.11	41.78
876.29	18.02
876.47	-5.32
876.64	47.92
876.82	22.12
877.00	12.29
877.18	21.30
877.35	20.89
877.53	24.99
877.71	17.20
877.89	45.46
878.06	-11.06
878.24	-10.24
878.42	9.42
878.60	41.37
878.77	43.01
878.95	-3.69
879.13	6.55
879.30	-2.46
879.48	13.93
879.66	7.78
879.84	42.60
880.01	-18.43
880.19	5.32
880.37	7.78
880.55	26.21
880.72	7.78
880.90	34.82
881.08	-13.93
881.25	-10.24
881.43	-1.64
881.61	82.33
881.78	31.95
881.96	77.82
882.14	20.07
882.32	45.46
882.49	88.47
882.67	29.49
882.85	7.37
883.02	27.44
883.20	-2.87
883.38	51.20
883.55	-6.96
883.73	-13.11
883.91	50.38
884.08	-24.99
884.26	-3.28
884.44	42.60
884.62	41.37
884.79	2.46
884.97	25.39
885.15	70.86
885.32	15.97
885.50	22.53
885.68	7.78
885.85	-19.66
886.03	4.10
886.21	41.37
886.38	-16.38
886.56	57.75
886.74	29.90
886.91	3.28
887.09	20.48
887.26	58.57
887.44	24.99
887.62	29.49
887.79	6.55
887.97	-0.41
888.15	2.46
888.32	-10.24
888.50	26.21
888.68	16.38
888.85	22.53
889.03	-13.11
889.21	21.71
889.38	-0.41
889.56	31.95
889.73	26.62
889.91	13.93
890.09	9.42
890.26	24.99
890.44	16.79
890.62	32.36
890.79	-9.01
890.97	27.44
891.14	34.41
891.32	12.70
891.50	12.70
891.67	82.74
891.85	12.29
892.02	-6.14
892.20	4.10
892.38	18.43
892.55	39.32
892.73	32.77
892.90	-18.84
893.08	6.55
893.26	17.20
893.43	23.35
893.61	-47.92
893.78	11.88
893.96	83.15
894.14	-9.42
894.31	23.76
894.49	9.42
894.66	34.82
894.84	42.19
895.01	-59.39
895.19	5.73
895.37	11.47
895.54	70.04
895.72	36.45
895.89	-5.32
896.07	22.94
896.24	20.89
896.42	41.37
896.60	46.28
896.77	-5.73
896.95	16.79
897.12	45.06
897.30	36.04
897.47	18.84
897.65	28.26
897.82	49.15
898.00	24.58
898.18	5.32
898.35	18.02
898.53	-2.87
898.70	16.38
898.88	43.83
899.05	13.52
899.23	-3.69
899.40	39.73
899.58	-9.42
899.75	-20.48
899.93	49.15
900.10	22.94
900.28	13.93
900.46	-13.52
900.63	33.59
900.81	23.76
900.98	6.96
901.16	0.82
901.33	25.39
901.51	4.51
901.68	1.23
901.86	-6.14
902.03	-4.51
902.21	-3.69
902.38	20.48
902.56	36.86
902.73	-32.77
902.91	23.35
903.08	-2.87
903.26	13.93
903.43	4.10
903.61	61.03
903.78	-22.53
903.96	-1.64
904.13	28.67
904.31	-31.54
904.48	10.24
904.66	16.79
904.83	4.10
905.01	6.55
905.18	-33.18
905.36	28.26
905.53	-22.12
905.70	26.21
905.88	-4.92
906.05	79.87
906.23	49.56
906.40	38.09
906.58	1.23
906.75	-8.60
906.93	-3.69
907.10	-6.55
907.28	-20.89
907.45	14.34
907.63	-39.32
907.80	33.18
907.97	27.85
908.15	43.01
908.32	11.88
908.50	-1.23
908.67	-1.64
908.85	2.46
909.02	57.34
909.20	52.43
909.37	0.82
909.54	18.43
909.72	7.78
909.89	-1.23
910.07	37.27
910.24	41.78
910.42	40.96
910.59	15.15
910.76	36.86
910.94	-6.55
911.11	-3.28
911.29	3.28
911.46	15.15
911.64	25.39
911.81	48.74
911.98	31.13
912.16	23.76
912.33	34.00
912.51	-34.00
912.68	-2.46
912.85	0.82
913.03	27.85
913.20	-21.30
913.38	26.21
913.55	60.21
913.72	9.01
913.90	17.20
914.07	14.75
914.25	-22.94
914.42	-11.47
914.59	-17.61
914.77	21.30
914.94	6.55
915.11	33.59
915.29	-3.28
915.46	-22.53
915.64	7.37
915.81	31.95
915.98	-21.30
916.16	16.79
916.33	18.84
916.50	-0.41
916.68	-33.18
916.85	-4.51
917.03	-27.85
917.20	24.58
917.37	8.19
917.55	21.30
917.72	0.82
917.89	37.27
918.07	18.43
918.24	-34.00
918.41	-19.25
918.59	13.52
918.76	2.87
918.93	27.44
919.11	-1.64
919.28	30.72
919.45	2.05
919.63	-27.03
919.80	66.35
919.97	24.58
920.15	-17.20
920.32	-13.93
920.49	9.83
920.67	7.78
920.84	12.70
921.01	23.76
921.19	20.89
921.36	25.80
921.53	12.70
921.71	20.07
921.88	41.78
922.05	23.76
922.23	72.50
922.40	4.10
922.57	40.55
922.74	26.62
922.92	-17.61
923.09	27.44
923.26	1.64
923.44	6.96
923.61	2.05
923.78	-23.76
923.96	15.56
924.13	-3.28
924.30	-11.47
924.47	-7.37
924.65	36.04
924.82	-45.46
924.99	-32.77
925.17	-5.32
925.34	1.23
925.51	-3.28
925.68	20.89
925.86	24.17
926.03	32.77
926.20	13.52
926.37	-1.64
926.55	7.37
926.72	-4.10
926.89	2.87
927.06	18.43
927.24	13.11
927.41	-4.10
927.58	-9.83
927.75	4.51
927.93	-50.79
928.10	-6.96
928.27	74.55
928.44	-4.51
928.62	-24.58
928.79	-59.80
928.96	6.14
929.13	37.27
929.31	-11.06
929.48	-7.37
929.65	23.76
929.82	-24.17
930.00	29.08
930.17	9.01
930.34	-17.20
930.51	24.99
930.69	-2.05
930.86	13.52
931.03	-19.66
931.20	4.51
931.37	-17.20
931.55	-13.11
931.72	-58.57
931.89	-1.23
932.06	18.84
932.23	11.88
932.41	-22.94
932.58	9.83
932.75	10.65
932.92	-40.55
933.09	-23.76
933.27	-4.51
933.44	-2.05
933.61	-5.32
933.78	18.43
933.95	13.93
934.13	16.38
934.30	28.26
934.47	67.99
934.64	13.52
934.81	10.24
934.98	-3.28
935.16	-22.94
935.33	-2.05
935.50	23.35
935.67	78.64
935.84	2.46
936.02	35.23
936.19	4.51
936.36	-29.90
936.53	-9.01
936.70	31.13
936.87	-54.89
937.05	29.49
937.22	33.59
937.39	8.19
937.56	46.28
937.73	-44.24
937.90	18.84
938.07	6.14
938.25	-6.55
938.42	2.87
938.59	-11.88
938.76	15.15
938.93	-9.42
939.10	-54.48
939.27	42.19
939.45	-23.35
939.62	18.43
939.79	23.35
939.96	-6.55
940.13	-12.29
940.30	-12.29
940.47	49.15
940.64	23.35
940.82	15.97
940.99	11.06
941.16	5.73
941.33	-22.53
941.50	-8.19
941.67	-23.35
941.84	-7.78
942.01	30.31
942.18	-38.09
942.36	-27.85
942.53	3.69
942.70	4.51
942.87	47.10
943.04	19.66
943.21	-7.37
943.38	-43.83
943.55	-21.71
943.72	28.26
943.89	59.80
944.06	-42.19
944.24	12.70
944.41	-8.60
944.58	19.25
944.75	14.34
944.92	-2.05
945.09	8.60
945.26	4.51
945.43	46.69
945.60	-11.88
945.77	-9.83
945.94	-29.90
946.11	15.97
946.28	-13.11
946.45	26.21
946.63	-16.38
946.80	12.70
946.97	99.12
947.14	-6.96
947.31	37.68
947.48	-19.66
947.65	28.67
947.82	-59.80
947.99	10.24
948.16	45.46
948.33	33.18
948.50	-13.52
948.67	-19.66
948.84	-21.71
949.01	46.28
949.18	2.05
949.35	9.83
949.52	-16.79
949.69	40.55
949.86	-0.41
950.03	43.83
950.20	-14.34
950.37	-5.73
950.54	-6.96
950.71	-19.25
950.88	20.48
951.05	-3.28
951.22	-15.15
951.39	61.44
951.56	-74.55
951.73	58.98
951.90	5.32
952.07	-22.53
952.24	-57.34
952.41	-49.15
952.58	2.87
952.75	24.58
952.92	20.89
953.09	37.68
953.26	38.50
953.43	10.24
953.60	-24.99
953.77	0.41
953.94	2.05
954.11	-34.00
954.28	7.37
954.45	-43.42
954.62	7.78
954.79	5.73
954.96	10.65
955.13	-16.79
955.30	-6.55
955.47	21.30
955.64	-27.44
955.81	6.96
955.98	32.36
956.15	6.55
956.32	24.58
956.49	4.92
956.66	7.78
956.83	-40.14
957.00	27.03
957.17	-8.60
957.34	-6.96
957.51	15.15
957.68	-32.77
957.84	-0.82
958.01	-9.42
958.18	5.73
958.35	-11.06
958.52	-40.96
958.69	6.55
958.86	-2.05
959.03	-21.30
959.20	-26.21
959.37	3.28
959.54	15.56
959.71	-44.24
959.88	2.46
960.05	-9.42
960.21	-37.68
960.38	5.32
960.55	-21.30
960.72	20.48
960.89	-35.23
961.06	16.79
961.23	10.24
961.40	-45.06
961.57	9.83
961.74	-46.28
961.90	23.35
962.07	-4.51
962.24	-8.60
962.41	-13.52
962.58	-11.06
962.75	-9.01
962.92	13.52
963.09	1.64
963.26	-0.41
963.42	50.79
963.59	-20.48
963.76	-15.97
963.93	-7.78
964.10	21.71
964.27	-44.65
964.44	-18.43
964.61	10.65
964.77	0.82
964.94	4.10
965.11	10.24
965.28	-15.56
965.45	-14.34
965.62	3.28
965.79	27.44
965.95	-15.15
966.12	29.90
966.29	-18.84
966.46	5.73
966.63	-34.00
966.80	-4.10
966.97	24.99
967.13	11.06
967.30	40.55
967.47	88.06
967.64	-43.83
967.81	-2.05
967.98	40.14
968.14	-3.69
968.31	29.49
968.48	-54.48
968.65	52.43
968.82	-26.62
968.99	45.06
969.15	-9.42
969.32	-25.39
969.49	36.86
969.66	12.70
969.83	58.98
969.99	-22.12
970.16	30.72
970.33	-58.16
970.50	36.45
970.67	-7.37
970.83	-27.03
971.00	35.23
971.17	3.28
971.34	-25.39
971.51	40.96
971.67	-57.75
971.84	5.73
972.01	14.34
972.18	20.07
972.35	11.47
972.51	0.41
972.68	47.51
972.85	-11.06
973.02	-10.24
973.19	9.01
973.35	36.04
973.52	-44.24
973.69	-22.12
973.86	9.83
974.02	2.87
974.19	-35.23
974.36	43.42
974.53	29.08
974.69	-46.69
974.86	32.36
975.03	-25.80
975.20	6.55
975.36	-9.42
975.53	-5.73
975.70	-37.27
975.87	-47.10
976.03	-39.73
976.20	-9.42
976.37	-1.23
976.54	-41.37
976.70	37.27
976.87	-25.80
977.04	9.01
977.21	12.29
977.37	-13.52
977.54	3.69
977.71	-28.26
977.88	-40.14
978.04	62.67
978.21	5.32
978.38	22.53
978.54	5.32
978.71	3.69
978.88	-22.12
979.05	-20.48
979.21	-41.37
979.38	2.87
979.55	6.96
979.71	-22.94
979.88	18.02
980.05	38.50
980.22	18.02
980.38	28.26
980.55	9.42
980.72	-25.80
980.88	-20.48
981.05	10.24
981.22	-20.07
981.38	15.97
981.55	24.99
981.72	-5.73
981.88	-30.31
982.05	-21.71
982.22	29.90
982.38	-43.42
982.55	40.14
982.72	-6.55
982.88	5.73
983.05	-34.00
983.22	9.01
983.38	23.76
983.55	-20.07
983.72	16.38
983.88	27.03
984.05	26.62
984.22	-40.55
984.38	29.49
984.55	-16.79
984.72	-2.46
984.88	74.14
985.05	-18.84
985.22	-26.21
985.38	40.96
985.55	43.83
985.72	22.12
985.88	18.84
986.05	31.95
986.22	4.51
986.38	9.83
986.55	26.62
986.71	1.64
986.88	-36.45
987.05	28.67
987.21	-38.50
987.38	-12.70
987.55	11.47
987.71	31.13
987.88	-14.75
988.04	17.20
988.21	-53.66
988.38	0.82
988.54	-1.64
988.71	-45.46
988.87	-30.31
989.04	-6.14
989.21	8.19
989.37	23.35
989.54	-0.41
989.70	14.34
989.87	-10.24
990.04	-3.69
990.20	11.47
990.37	-12.29
990.53	-2.05
990.70	-35.23
990.87	-7.37
991.03	16.38
991.20	-0.82
991.36	21.30
991.53	18.84
991.69	4.92
991.86	22.12
992.03	0.00
992.19	38.91
992.36	45.46
992.52	-4.10
992.69	-11.47
992.85	7.37
993.02	28.67
993.18	45.46
993.35	27.44
993.52	-57.75
993.68	-8.19
993.85	14.34
994.01	29.49
994.18	-6.55
994.34	43.42
994.51	-0.41
994.67	38.09
994.84	11.88
995.00	40.55
995.17	-12.29
995.34	-32.77
995.50	15.97
995.67	41.78
995.83	4.92
996.00	-2.05
996.16	12.29
996.33	-385.02
996.49	23.76
996.66	-32.36
996.82	0.41
996.99	-37.68
997.15	1.23
997.32	-4.51
997.48	18.43
997.65	6.55
997.81	-23.76
997.98	-11.47
998.14	-22.94
998.31	-46.69
998.47	6.55
998.64	-29.49
998.80	-31.95
998.97	-29.90
999.13	-20.89
999.30	10.65
999.46	-39.73
999.63	54.07
999.79	23.76
999.96	20.89
1000.12	-4.92
1000.29	-68.81
1000.45	-14.34
1000.62	0.41
1000.78	-23.76
1000.95	-19.25
1001.11	5.73
1001.28	-15.15
1001.44	10.65
1001.60	11.47
1001.77	12.70
1001.93	4.10
1002.10	-13.93
1002.26	-18.43
1002.43	32.36
1002.59	-52.02
1002.76	25.39
1002.92	-1.23
1003.09	-17.61
1003.25	2.46
1003.41	-24.17
1003.58	15.15
1003.74	54.89
1003.91	36.86
1004.07	-30.72
1004.24	-36.45
1004.40	4.51
1004.56	31.13
1004.73	-19.25
1004.89	3.69
1005.06	-2.05
1005.22	18.43
1005.39	16.38
1005.55	-6.14
1005.71	-58.57
1005.88	-72.91
1006.04	-25.80
1006.21	-19.25
1006.37	-45.06
1006.53	-41.78
1006.70	-13.93
1006.86	12.70
1007.03	57.34
1007.19	-24.58
1007.35	13.11
1007.52	-30.31
1007.68	-6.55
1007.85	12.29
1008.01	-8.19
1008.17	-16.38
1008.34	3.69
1008.50	1.23
1008.67	40.14
1008.83	5.73
1008.99	18.84
1009.16	-7.78
1009.32	59.39
1009.48	3.69
1009.65	-4.51
1009.81	33.59
1009.98	-54.89
1010.14	-32.77
1010.30	9.01
1010.47	2.87
1010.63	58.16
1010.79	14.34
1010.96	5.32
1011.12	32.36
1011.28	-10.65
1011.45	11.47
1011.61	28.67
1011.78	9.01
1011.94	2.87
1012.10	-19.25
1012.27	-29.08
1012.43	-51.20
1012.59	-27.03
1012.76	34.41
1012.92	-7.37
1013.08	-59.39
1013.25	-25.80
1013.41	-8.19
1013.57	17.20
1013.74	-2.46
1013.90	11.47
1014.06	44.24
1014.22	-27.85
1014.39	19.66
1014.55	26.21
1014.71	25.39
1014.88	-62.26
1015.04	-6.55
1015.20	10.65
1015.37	-53.25
1015.53	-29.90
1015.69	0.82
1015.86	12.29
1016.02	-21.30
1016.18	25.39
1016.34	15.97
1016.51	-23.35
1016.67	-18.84
1016.83	17.20
1017.00	10.24
1017.16	-16.38
1017.32	-11.47
1017.48	-46.28
1017.65	6.96
1017.81	22.53
1017.97	-37.68
1018.14	-4.51
1018.30	14.75
1018.46	-11.47
1018.62	7.78
1018.79	-41.37
1018.95	-13.93
1019.11	-25.39
1019.27	-9.83
1019.44	35.23
1019.60	24.17
1019.76	-12.29
1019.92	11.06
1020.09	-7.37
1020.25	-3.69
1020.41	3.28
1020.57	-22.53
1020.74	66.35
1020.90	5.73
1021.06	17.20
1021.22	-29.08
1021.39	-14.34
1021.55	31.54
1021.71	2.46
1021.87	24.58
1022.04	22.53
1022.20	-36.45
1022.36	-24.58
1022.52	-14.34
1022.68	-6.55
1022.85	32.36
1023.01	9.83
1023.17	46.69
1023.33	5.73
1023.50	20.07
1023.66	-5.73
1023.82	43.83
1023.98	13.11
1024.14	13.93
1024.31	10.65
1024.47	3.69
1024.63	-21.71
1024.79	-16.38
1024.95	-5.32
1025.12	-15.97
1025.28	-35.23
1025.44	-15.97
1025.60	6.96
1025.76	13.11
1025.93	9.01
1026.09	-21.71
1026.25	-25.39
1026.41	-0.82
1026.57	-4.51
1026.73	0.82
1026.90	17.20
1027.06	-34.00
1027.22	12.29
1027.38	43.42
1027.54	-18.02
1027.70	0.82
1027.87	-26.21
1028.03	-20.48
1028.19	-4.92
1028.35	-6.96
1028.51	5.73
1028.67	-3.69
1028.83	4.10
1029.00	-30.31
1029.16	19.66
1029.32	-9.83
1029.48	19.25
1029.64	25.80
1029.80	-30.31
1029.96	-24.17
1030.13	-20.07
1030.29	13.52
1030.45	12.29
1030.61	-5.73
1030.77	34.00
1030.93	32.36
1031.09	4.51
1031.25	18.84
1031.42	25.80
1031.58	12.70
1031.74	47.92
1031.90	40.14
1032.06	45.06
1032.22	-18.43
1032.38	8.19
1032.54	-9.83
1032.70	-8.60
1032.87	1.23
1033.03	0.82
1033.19	12.70
1033.35	6.96
1033.51	18.43
1033.67	27.44
1033.83	32.77
1033.99	19.66
1034.15	-19.66
1034.31	-30.31
1034.48	-13.52
1034.64	15.56
1034.80	50.79
1034.96	-52.43
1035.12	17.61
1035.28	4.10
1035.44	25.39
1035.60	-26.62
1035.76	-7.78
1035.92	-5.73
1036.08	-3.69
1036.24	-16.79
1036.40	-27.03
1036.56	34.41
1036.72	17.20
1036.89	-29.08
1037.05	-29.08
1037.21	1.64
1037.37	-22.53
1037.53	43.42
1037.69	18.02
1037.85	6.55
1038.01	20.48
1038.17	1.23
>>>>>End Processed Spectral Data<<<<<
